Measurement time:; 12/04/2023 18:28:42
Radiation device:; Novalis TB Accelerator
Energy:; 6 MV (FFF)
Controller:; CCU
Measurement device:; Blue Phantom 2  (48*48*41)
Field detector:; SFD parallele
Reference detector:; Stealth CI transmission
SAD:; 1000 mm
SSD:; 900 mm
Field size:; 10 x 10 mm
Gantry angle:; 0
Measurement medium:; Water
Scan type:; Inline
Scan mode:; StepByStep
Wedge:; none

Points [mm]:
Inline; Crossline; Depth; Normalized field; Current field; Ratio
-10,0; 0,0; 100,0; 2,24; 23220,6; 2,24
-9,0; 0,0; 100,0; 3,47; 35958,7; 3,47
-8,0; 0,0; 100,0; 5,60; 58041,1; 5,60
-7,0; 0,0; 100,0; 9,59; 99440,6; 9,60
-6,0; 0,0; 100,0; 19,65; 203612,8; 19,66
-5,0; 0,0; 100,0; 48,91; 506879,6; 48,93
-4,0; 0,0; 100,0; 83,40; 864432,6; 83,40
-3,0; 0,0; 100,0; 94,18; 976137,9; 94,26
-2,0; 0,0; 100,0; 98,23; 1018120,9; 98,28
-1,0; 0,0; 100,0; 99,70; 1033311,2; 99,77
0,0; 0,0; 100,0; 99,94; 1035779,3; 100,00
1,0; 0,0; 100,0; 99,07; 1026765,2; 99,13
2,0; 0,0; 100,0; 96,22; 997276,3; 96,30
3,0; 0,0; 100,0; 89,22; 924697,5; 89,28
4,0; 0,0; 100,0; 69,35; 718782,5; 69,40
5,0; 0,0; 100,0; 31,77; 329316,4; 31,80
6,0; 0,0; 100,0; 13,18; 136578,5; 13,19
7,0; 0,0; 100,0; 7,01; 72634,7; 7,01
8,0; 0,0; 100,0; 4,27; 44279,6; 4,28
9,0; 0,0; 100,0; 2,70; 27954,5; 2,70
10,0; 0,0; 100,0; 1,76; 18254,1; 1,76


Measurement time:; 12/04/2023 18:30:13
Radiation device:; Novalis TB Accelerator
Energy:; 6 MV (FFF)
Controller:; CCU
Measurement device:; Blue Phantom 2  (48*48*41)
Field detector:; SFD parallele
Reference detector:; Stealth CI transmission
SAD:; 1000 mm
SSD:; 900 mm
Field size:; 10 x 10 mm
Gantry angle:; 0
Measurement medium:; Water
Scan type:; Crossline
Scan mode:; StepByStep
Wedge:; none

Points [mm]:
Inline; Crossline; Depth; Normalized field; Current field; Ratio
0,0; -10,0; 100,0; 2,55; 26458,6; 2,56
0,0; -9,0; 100,0; 4,04; 41907,8; 4,05
0,0; -8,0; 100,0; 7,01; 72666,0; 7,03
0,0; -7,0; 100,0; 13,64; 141398,9; 13,68
0,0; -6,0; 100,0; 28,74; 297842,4; 28,82
0,0; -5,0; 100,0; 61,55; 637973,4; 61,73
0,0; -4,0; 100,0; 87,12; 902943,3; 87,30
0,0; -3,0; 100,0; 95,17; 986388,5; 95,43
0,0; -2,0; 100,0; 98,07; 1016475,8; 98,36
0,0; -1,0; 100,0; 99,32; 1029355,0; 99,57
0,0; 0,0; 100,0; 99,72; 1033580,3; 100,00
0,0; 1,0; 100,0; 99,33; 1029555,2; 99,60
0,0; 2,0; 100,0; 97,52; 1010800,3; 97,76
0,0; 3,0; 100,0; 93,13; 965282,0; 93,40
0,0; 4,0; 100,0; 83,83; 868845,2; 84,10
0,0; 5,0; 100,0; 61,89; 641414,4; 62,08
0,0; 6,0; 100,0; 27,78; 287883,0; 27,86
0,0; 7,0; 100,0; 11,97; 124067,6; 12,00
0,0; 8,0; 100,0; 6,32; 65489,1; 6,34
0,0; 9,0; 100,0; 3,76; 39000,6; 3,77
0,0; 10,0; 100,0; 2,43; 25216,2; 2,44


Measurement time:; 12/04/2023 18:31:48
Radiation device:; Novalis TB Accelerator
Energy:; 6 MV (FFF)
Controller:; CCU
Measurement device:; Blue Phantom 2  (48*48*41)
Field detector:; SFD parallele
Reference detector:; Stealth CI transmission
SAD:; 1000 mm
SSD:; 900 mm
Field size:; 10 x 10 mm
Gantry angle:; 0
Measurement medium:; Water
Scan type:; Beam
Scan mode:; StepByStep
Wedge:; none

Points [mm]:
Inline; Crossline; Depth; Normalized field; Current field; Ratio
0,0; 0,0; -0,5; 97,67; 1012313,0; 50,15
0,0; 0,0; 0,5; 102,98; 1067305,5; 52,87
0,0; 0,0; 1,5; 124,85; 1294028,4; 64,09
0,0; 0,0; 2,5; 150,25; 1557258,4; 77,12
0,0; 0,0; 3,5; 166,04; 1720912,2; 85,22
0,0; 0,0; 4,5; 176,67; 1831100,8; 90,70
0,0; 0,0; 5,5; 183,95; 1906557,8; 94,48
0,0; 0,0; 6,5; 188,65; 1955235,4; 96,89
0,0; 0,0; 7,5; 191,62; 1986025,4; 98,38
0,0; 0,0; 8,5; 193,42; 2004727,9; 99,29
0,0; 0,0; 9,5; 194,54; 2016300,7; 99,87
0,0; 0,0; 10,5; 194,79; 2018891,4; 100,00
0,0; 0,0; 11,5; 194,60; 2016927,3; 99,89
0,0; 0,0; 12,5; 194,19; 2012680,7; 99,70
0,0; 0,0; 13,5; 193,39; 2004386,0; 99,30
0,0; 0,0; 14,5; 192,40; 1994129,1; 98,78
0,0; 0,0; 15,5; 191,28; 1982578,4; 98,17
0,0; 0,0; 16,5; 190,02; 1969448,2; 97,52
0,0; 0,0; 17,5; 188,82; 1957006,8; 96,92
0,0; 0,0; 18,5; 187,50; 1943336,8; 96,25
0,0; 0,0; 19,5; 186,04; 1928206,1; 95,49
0,0; 0,0; 20,5; 184,75; 1914866,8; 94,81
0,0; 0,0; 21,5; 183,36; 1900422,1; 94,09
0,0; 0,0; 22,5; 181,96; 1885977,4; 93,37
0,0; 0,0; 23,5; 180,57; 1871532,7; 92,66
0,0; 0,0; 24,5; 179,18; 1857088,0; 91,94
0,0; 0,0; 25,5; 177,77; 1842507,5; 91,22
0,0; 0,0; 26,5; 176,36; 1827852,1; 90,50
0,0; 0,0; 27,5; 174,94; 1813196,7; 89,78
0,0; 0,0; 28,5; 173,53; 1798541,2; 89,07
0,0; 0,0; 29,5; 172,11; 1783885,8; 88,35
0,0; 0,0; 30,5; 170,77; 1769922,2; 87,65
0,0; 0,0; 31,5; 169,46; 1756396,1; 86,98
0,0; 0,0; 32,5; 168,16; 1742870,0; 86,30
0,0; 0,0; 33,5; 166,85; 1729343,8; 85,62
0,0; 0,0; 34,5; 165,55; 1715817,7; 84,95
0,0; 0,0; 35,5; 164,23; 1702152,3; 84,27
0,0; 0,0; 36,5; 162,90; 1688384,7; 83,60
0,0; 0,0; 37,5; 161,57; 1674617,1; 82,92
0,0; 0,0; 38,5; 160,24; 1660849,5; 82,25
0,0; 0,0; 39,5; 158,92; 1647081,9; 81,57
0,0; 0,0; 40,5; 157,68; 1634262,5; 80,93
0,0; 0,0; 41,5; 156,50; 1622079,0; 80,32
0,0; 0,0; 42,5; 155,33; 1609895,5; 79,72
0,0; 0,0; 43,5; 154,15; 1597712,0; 79,11
0,0; 0,0; 44,5; 152,98; 1585528,5; 78,50
0,0; 0,0; 45,5; 151,81; 1573465,9; 77,90
0,0; 0,0; 46,5; 150,66; 1561494,5; 77,30
0,0; 0,0; 47,5; 149,50; 1549523,1; 76,71
0,0; 0,0; 48,5; 148,35; 1537551,6; 76,12
0,0; 0,0; 49,5; 147,19; 1525580,2; 75,52
0,0; 0,0; 50,5; 146,02; 1513418,2; 74,92
0,0; 0,0; 51,5; 144,83; 1501106,7; 74,31
0,0; 0,0; 52,5; 143,64; 1488795,2; 73,70
0,0; 0,0; 53,5; 142,46; 1476483,7; 73,09
0,0; 0,0; 54,5; 141,27; 1464172,2; 72,48
0,0; 0,0; 55,5; 140,12; 1452306,7; 71,89
0,0; 0,0; 56,5; 139,02; 1440836,8; 71,33
0,0; 0,0; 57,5; 137,91; 1429366,8; 70,76
0,0; 0,0; 58,5; 136,80; 1417896,9; 70,19
0,0; 0,0; 59,5; 135,70; 1406427,0; 69,63
0,0; 0,0; 60,5; 134,66; 1395668,8; 69,10
0,0; 0,0; 61,5; 133,68; 1385527,5; 68,60
0,0; 0,0; 62,5; 132,70; 1375386,2; 68,10
0,0; 0,0; 63,5; 131,72; 1365244,9; 67,60
0,0; 0,0; 64,5; 130,74; 1355103,6; 67,10
0,0; 0,0; 65,5; 129,74; 1344697,2; 66,58
0,0; 0,0; 66,5; 128,71; 1334065,1; 66,05
0,0; 0,0; 67,5; 127,69; 1323433,1; 65,52
0,0; 0,0; 68,5; 126,66; 1312801,0; 64,99
0,0; 0,0; 69,5; 125,64; 1302168,9; 64,45
0,0; 0,0; 70,5; 124,68; 1292230,5; 63,96
0,0; 0,0; 71,5; 123,78; 1282879,3; 63,50
0,0; 0,0; 72,5; 122,87; 1273528,2; 63,04
0,0; 0,0; 73,5; 121,97; 1264177,0; 62,59
0,0; 0,0; 74,5; 121,07; 1254825,8; 62,13
0,0; 0,0; 75,5; 120,12; 1245002,5; 61,64
0,0; 0,0; 76,5; 119,12; 1234664,0; 61,13
0,0; 0,0; 77,5; 118,13; 1224325,4; 60,61
0,0; 0,0; 78,5; 117,13; 1213986,9; 60,10
0,0; 0,0; 79,5; 116,13; 1203648,4; 59,59
0,0; 0,0; 80,5; 115,21; 1194124,9; 59,12
0,0; 0,0; 81,5; 114,38; 1185496,1; 58,69
0,0; 0,0; 82,5; 113,55; 1176867,3; 58,27
0,0; 0,0; 83,5; 112,72; 1168238,5; 57,85
0,0; 0,0; 84,5; 111,88; 1159609,7; 57,42
0,0; 0,0; 85,5; 111,05; 1151015,8; 57,00
0,0; 0,0; 86,5; 110,23; 1142456,6; 56,57
0,0; 0,0; 87,5; 109,40; 1133897,4; 56,14
0,0; 0,0; 88,5; 108,58; 1125338,3; 55,71
0,0; 0,0; 89,5; 107,75; 1116779,1; 55,28
0,0; 0,0; 90,5; 106,94; 1108398,2; 54,87
0,0; 0,0; 91,5; 106,15; 1100244,3; 54,47
0,0; 0,0; 92,5; 105,37; 1092090,3; 54,07
0,0; 0,0; 93,5; 104,58; 1083936,4; 53,67
0,0; 0,0; 94,5; 103,79; 1075782,5; 53,26
0,0; 0,0; 95,5; 103,01; 1067700,3; 52,87
0,0; 0,0; 96,5; 102,24; 1059705,6; 52,47
0,0; 0,0; 97,5; 101,47; 1051711,0; 52,07
0,0; 0,0; 98,5; 100,70; 1043716,3; 51,68
0,0; 0,0; 99,5; 99,93; 1035721,6; 51,28
0,0; 0,0; 100,5; 99,18; 1027977,7; 50,90
0,0; 0,0; 101,5; 98,46; 1020532,7; 50,53
0,0; 0,0; 102,5; 97,75; 1013087,6; 50,16
0,0; 0,0; 103,5; 97,03; 1005642,6; 49,79
0,0; 0,0; 104,5; 96,31; 998197,5; 49,43
0,0; 0,0; 105,5; 95,61; 990909,5; 49,07
0,0; 0,0; 106,5; 94,92; 983809,9; 48,71
0,0; 0,0; 107,5; 94,24; 976710,4; 48,36
0,0; 0,0; 108,5; 93,55; 969610,8; 48,01
0,0; 0,0; 109,5; 92,87; 962511,3; 47,66
0,0; 0,0; 110,5; 92,18; 955377,3; 47,31
0,0; 0,0; 111,5; 91,49; 948199,5; 46,95
0,0; 0,0; 112,5; 90,79; 941021,7; 46,59
0,0; 0,0; 113,5; 90,10; 933843,9; 46,24
0,0; 0,0; 114,5; 89,41; 926666,2; 45,88
0,0; 0,0; 115,5; 88,73; 919619,8; 45,53
0,0; 0,0; 116,5; 88,07; 912753,9; 45,19
0,0; 0,0; 117,5; 87,40; 905888,0; 44,84
0,0; 0,0; 118,5; 86,74; 899022,1; 44,50
0,0; 0,0; 119,5; 86,08; 892156,2; 44,16
0,0; 0,0; 120,5; 85,43; 885417,7; 43,83
0,0; 0,0; 121,5; 84,79; 878853,5; 43,50
0,0; 0,0; 122,5; 84,16; 872289,4; 43,18
0,0; 0,0; 123,5; 83,53; 865725,3; 42,85
0,0; 0,0; 124,5; 82,89; 859161,2; 42,53
0,0; 0,0; 125,5; 82,27; 852700,2; 42,21
0,0; 0,0; 126,5; 81,66; 846365,9; 41,90
0,0; 0,0; 127,5; 81,05; 840031,5; 41,59
0,0; 0,0; 128,5; 80,44; 833697,2; 41,28
0,0; 0,0; 129,5; 79,83; 827362,8; 40,97
0,0; 0,0; 130,5; 79,24; 821242,5; 40,66
0,0; 0,0; 131,5; 78,67; 815385,9; 40,37
0,0; 0,0; 132,5; 78,11; 809529,2; 40,08
0,0; 0,0; 133,5; 77,54; 803672,5; 39,78
0,0; 0,0; 134,5; 76,98; 797815,9; 39,49
0,0; 0,0; 135,5; 76,41; 792003,0; 39,20
0,0; 0,0; 136,5; 75,86; 786241,4; 38,91
0,0; 0,0; 137,5; 75,30; 780479,9; 38,63
0,0; 0,0; 138,5; 74,75; 774718,4; 38,34
0,0; 0,0; 139,5; 74,19; 768956,9; 38,06
0,0; 0,0; 140,5; 73,66; 763410,1; 37,78
0,0; 0,0; 141,5; 73,14; 758094,5; 37,52
0,0; 0,0; 142,5; 72,63; 752778,9; 37,26
0,0; 0,0; 143,5; 72,12; 747463,2; 37,00
0,0; 0,0; 144,5; 71,60; 742147,6; 36,73
0,0; 0,0; 145,5; 71,08; 736712,7; 36,47
0,0; 0,0; 146,5; 70,54; 731123,0; 36,19
0,0; 0,0; 147,5; 70,00; 725533,2; 35,92
0,0; 0,0; 148,5; 69,46; 719943,5; 35,64
0,0; 0,0; 149,5; 68,92; 714353,8; 35,36
0,0; 0,0; 150,5; 68,42; 709103,0; 35,10
0,0; 0,0; 151,5; 67,95; 704262,9; 34,86
0,0; 0,0; 152,5; 67,48; 699422,8; 34,62
0,0; 0,0; 153,5; 67,02; 694582,7; 34,37
0,0; 0,0; 154,5; 66,55; 689742,6; 34,13
0,0; 0,0; 155,5; 66,10; 685067,0; 33,89
0,0; 0,0; 156,5; 65,67; 680614,9; 33,67
0,0; 0,0; 157,5; 65,24; 676162,8; 33,45
0,0; 0,0; 158,5; 64,81; 671710,7; 33,23
0,0; 0,0; 159,5; 64,38; 667258,6; 33,00
0,0; 0,0; 160,5; 63,92; 662546,5; 32,77
0,0; 0,0; 161,5; 63,44; 657502,0; 32,52
0,0; 0,0; 162,5; 62,95; 652457,5; 32,28
0,0; 0,0; 163,5; 62,46; 647413,0; 32,03
0,0; 0,0; 164,5; 61,98; 642368,5; 31,78
0,0; 0,0; 165,5; 61,52; 637671,2; 31,55
0,0; 0,0; 166,5; 61,11; 633370,4; 31,34
0,0; 0,0; 167,5; 60,69; 629069,7; 31,12
0,0; 0,0; 168,5; 60,28; 624768,9; 30,91
0,0; 0,0; 169,5; 59,86; 620468,1; 30,70
0,0; 0,0; 170,5; 59,46; 616226,5; 30,49
0,0; 0,0; 171,5; 59,05; 612069,7; 30,28
0,0; 0,0; 172,5; 58,65; 607912,8; 30,08
0,0; 0,0; 173,5; 58,25; 603756,0; 29,87
0,0; 0,0; 174,5; 57,85; 599599,1; 29,67
0,0; 0,0; 175,5; 57,44; 595331,9; 29,46
0,0; 0,0; 176,5; 57,01; 590924,2; 29,24
0,0; 0,0; 177,5; 56,59; 586516,6; 29,03
0,0; 0,0; 178,5; 56,16; 582108,9; 28,81
0,0; 0,0; 179,5; 55,74; 577701,3; 28,60
0,0; 0,0; 180,5; 55,32; 573352,9; 28,38
0,0; 0,0; 181,5; 54,91; 569071,3; 28,17
0,0; 0,0; 182,5; 54,49; 564789,7; 27,95
0,0; 0,0; 183,5; 54,08; 560508,1; 27,74
0,0; 0,0; 184,5; 53,67; 556226,5; 27,53
0,0; 0,0; 185,5; 53,30; 552394,7; 27,34
0,0; 0,0; 186,5; 52,98; 549140,3; 27,18
0,0; 0,0; 187,5; 52,67; 545886,0; 27,02
0,0; 0,0; 188,5; 52,35; 542631,6; 26,86
0,0; 0,0; 189,5; 52,04; 539377,2; 26,70
0,0; 0,0; 190,5; 51,69; 535765,5; 26,52
0,0; 0,0; 191,5; 51,30; 531724,4; 26,32
0,0; 0,0; 192,5; 50,91; 527683,3; 26,12
0,0; 0,0; 193,5; 50,52; 523642,1; 25,92
0,0; 0,0; 194,5; 50,13; 519601,0; 25,71
0,0; 0,0; 195,5; 49,78; 515947,9; 25,53
0,0; 0,0; 196,5; 49,47; 512750,6; 25,37
0,0; 0,0; 197,5; 49,16; 509553,2; 25,21
0,0; 0,0; 198,5; 48,85; 506355,8; 25,05
0,0; 0,0; 199,5; 48,55; 503158,4; 24,89
0,0; 0,0; 200,5; 48,22; 499776,3; 24,72
0,0; 0,0; 201,5; 47,87; 496172,1; 24,54
0,0; 0,0; 202,5; 47,52; 492567,9; 24,37
0,0; 0,0; 203,5; 47,18; 488963,7; 24,19
0,0; 0,0; 204,5; 46,83; 485359,5; 24,01
0,0; 0,0; 205,5; 46,48; 481790,7; 23,83
0,0; 0,0; 206,5; 46,14; 478268,4; 23,66
0,0; 0,0; 207,5; 45,80; 474746,1; 23,49
0,0; 0,0; 208,5; 45,47; 471223,8; 23,32
0,0; 0,0; 209,5; 45,13; 467701,5; 23,14
0,0; 0,0; 210,5; 44,82; 464583,7; 22,99
0,0; 0,0; 211,5; 44,56; 461891,6; 22,86
0,0; 0,0; 212,5; 44,30; 459199,4; 22,72
0,0; 0,0; 213,5; 44,05; 456507,2; 22,59
0,0; 0,0; 214,5; 43,79; 453815,1; 22,46
0,0; 0,0; 215,5; 43,51; 450924,9; 22,32
0,0; 0,0; 216,5; 43,20; 447775,3; 22,16
0,0; 0,0; 217,5; 42,90; 444625,7; 22,00
0,0; 0,0; 218,5; 42,59; 441476,1; 21,85
0,0; 0,0; 219,5; 42,29; 438326,4; 21,69
0,0; 0,0; 220,5; 41,99; 435228,8; 21,54
0,0; 0,0; 221,5; 41,70; 432191,7; 21,39
0,0; 0,0; 222,5; 41,41; 429154,6; 21,23
0,0; 0,0; 223,5; 41,11; 426117,5; 21,08
0,0; 0,0; 224,5; 40,82; 423080,4; 20,93
0,0; 0,0; 225,5; 40,54; 420150,2; 20,79
0,0; 0,0; 226,5; 40,27; 417344,4; 20,65
0,0; 0,0; 227,5; 40,00; 414538,6; 20,51
0,0; 0,0; 228,5; 39,73; 411732,9; 20,37
0,0; 0,0; 229,5; 39,45; 408927,1; 20,23
0,0; 0,0; 230,5; 39,18; 406071,2; 20,09
0,0; 0,0; 231,5; 38,90; 403155,4; 19,95
0,0; 0,0; 232,5; 38,62; 400239,6; 19,80
0,0; 0,0; 233,5; 38,33; 397323,8; 19,66
0,0; 0,0; 234,5; 38,05; 394408,0; 19,51
0,0; 0,0; 235,5; 37,79; 391713,2; 19,38
0,0; 0,0; 236,5; 37,56; 389285,7; 19,26
0,0; 0,0; 237,5; 37,33; 386858,3; 19,14
0,0; 0,0; 238,5; 37,09; 384430,8; 19,03
0,0; 0,0; 239,5; 36,86; 382003,4; 18,91
0,0; 0,0; 240,5; 36,61; 379426,4; 18,78
0,0; 0,0; 241,5; 36,34; 376693,1; 18,65
0,0; 0,0; 242,5; 36,08; 373959,8; 18,51
0,0; 0,0; 243,5; 35,82; 371226,5; 18,37
0,0; 0,0; 244,5; 35,55; 368493,2; 18,24
0,0; 0,0; 245,5; 35,31; 365956,8; 18,11
0,0; 0,0; 246,5; 35,08; 363637,2; 17,99
0,0; 0,0; 247,5; 34,86; 361317,6; 17,87
0,0; 0,0; 248,5; 34,64; 358998,0; 17,76
0,0; 0,0; 249,5; 34,41; 356678,4; 17,64


Measurement time:; 12/04/2023 18:35:42
Radiation device:; Novalis TB Accelerator
Energy:; 6 MV (FFF)
Controller:; CCU
Measurement device:; Blue Phantom 2  (48*48*41)
Field detector:; SFD parallele
Reference detector:; Stealth CI transmission
SAD:; 1000 mm
SSD:; 900 mm
Field size:; 10 x 10 mm
Gantry angle:; 0
Measurement medium:; Water
Scan type:; Inline
Scan mode:; StepByStep
Wedge:; none

Points [mm]:
Inline; Crossline; Depth; Normalized field; Current field; Ratio
-10,0; 0,0; 100,0; 2,38; 24667,3; 2,40
-9,0; 0,0; 100,0; 3,53; 36616,5; 3,56
-8,0; 0,0; 100,0; 5,70; 59049,2; 5,75
-7,0; 0,0; 100,0; 9,78; 101408,1; 9,88
-6,0; 0,0; 100,0; 20,15; 208854,4; 20,33
-5,0; 0,0; 100,0; 49,54; 513443,2; 49,99
-4,0; 0,0; 100,0; 82,45; 854532,4; 83,23
-3,0; 0,0; 100,0; 93,57; 969830,3; 94,42
-2,0; 0,0; 100,0; 97,34; 1008906,8; 98,22
-1,0; 0,0; 100,0; 98,90; 1025083,9; 99,84
0,0; 0,0; 100,0; 99,10; 1027143,4; 100,00
1,0; 0,0; 100,0; 98,08; 1016604,2; 98,96
2,0; 0,0; 100,0; 95,19; 986578,9; 96,06
3,0; 0,0; 100,0; 88,19; 914080,1; 88,96
4,0; 0,0; 100,0; 66,56; 689866,5; 67,14
5,0; 0,0; 100,0; 30,06; 311567,2; 30,33
6,0; 0,0; 100,0; 13,35; 138352,8; 13,47
7,0; 0,0; 100,0; 6,83; 70754,5; 6,89
8,0; 0,0; 100,0; 4,20; 43542,8; 4,24
9,0; 0,0; 100,0; 2,73; 28299,7; 2,76
10,0; 0,0; 100,0; 1,77; 18383,9; 1,79


Measurement time:; 12/04/2023 18:36:37
Radiation device:; Novalis TB Accelerator
Energy:; 6 MV (FFF)
Controller:; CCU
Measurement device:; Blue Phantom 2  (48*48*41)
Field detector:; SFD parallele
Reference detector:; Stealth CI transmission
SAD:; 1000 mm
SSD:; 900 mm
Field size:; 10 x 10 mm
Gantry angle:; 0
Measurement medium:; Water
Scan type:; Crossline
Scan mode:; StepByStep
Wedge:; none

Points [mm]:
Inline; Crossline; Depth; Normalized field; Current field; Ratio
0,0; -10,0; 100,0; 2,69; 27846,1; 2,72
0,0; -9,0; 100,0; 4,16; 43115,1; 4,21
0,0; -8,0; 100,0; 7,10; 73580,7; 7,18
0,0; -7,0; 100,0; 13,63; 141291,2; 13,80
0,0; -6,0; 100,0; 29,72; 308003,5; 30,07
0,0; -5,0; 100,0; 60,63; 628367,7; 61,35
0,0; -4,0; 100,0; 86,37; 895164,1; 87,37
0,0; -3,0; 100,0; 94,74; 981971,9; 95,85
0,0; -2,0; 100,0; 97,50; 1010560,9; 98,62
0,0; -1,0; 100,0; 98,66; 1022568,9; 99,86
0,0; 0,0; 100,0; 98,88; 1024854,0; 100,00
0,0; 1,0; 100,0; 98,57; 1021598,7; 99,72
0,0; 2,0; 100,0; 96,95; 1004852,1; 98,14
0,0; 3,0; 100,0; 92,26; 956181,5; 93,30
0,0; 4,0; 100,0; 83,30; 863385,4; 84,27
0,0; 5,0; 100,0; 60,40; 626020,6; 61,08
0,0; 6,0; 100,0; 27,86; 288752,4; 28,19
0,0; 7,0; 100,0; 12,39; 128411,9; 12,54
0,0; 8,0; 100,0; 6,47; 67029,8; 6,54
0,0; 9,0; 100,0; 3,83; 39718,1; 3,88
0,0; 10,0; 100,0; 2,40; 24885,2; 2,43


Measurement time:; 12/04/2023 18:39:08
Radiation device:; Novalis TB Accelerator
Energy:; 6 MV 
Controller:; CCU
Measurement device:; Blue Phantom 2  (48*48*41)
Field detector:; SFD parallele
Reference detector:; Stealth CI transmission
SAD:; 1000 mm
SSD:; 900 mm
Field size:; 10 x 10 mm
Gantry angle:; 0
Measurement medium:; Water
Scan type:; Inline
Scan mode:; StepByStep
Wedge:; none

Points [mm]:
Inline; Crossline; Depth; Normalized field; Current field; Ratio
-10,0; 0,0; 100,0; 0,34; 3551,6; 1,24
-9,0; 0,0; 100,0; 0,79; 8179,5; 2,85
-8,0; 0,0; 100,0; 1,56; 16135,2; 5,63
-7,0; 0,0; 100,0; 3,04; 31498,4; 10,98
-6,0; 0,0; 100,0; 6,45; 66865,9; 23,35
-5,0; 0,0; 100,0; 15,48; 160437,3; 55,89
-4,0; 0,0; 100,0; 23,67; 245295,3; 85,61
-3,0; 0,0; 100,0; 26,27; 272322,1; 94,97
-2,0; 0,0; 100,0; 27,37; 283646,4; 98,89
-1,0; 0,0; 100,0; 27,75; 287644,5; 100,29
0,0; 0,0; 100,0; 27,65; 286558,4; 100,00
1,0; 0,0; 100,0; 27,42; 284147,2; 99,11
2,0; 0,0; 100,0; 26,34; 272961,0; 95,22
3,0; 0,0; 100,0; 23,70; 245681,8; 85,71
4,0; 0,0; 100,0; 17,35; 179846,6; 62,72
5,0; 0,0; 100,0; 7,56; 78310,1; 27,29
6,0; 0,0; 100,0; 3,26; 33814,2; 11,80
7,0; 0,0; 100,0; 1,64; 17022,9; 5,94
8,0; 0,0; 100,0; 0,83; 8626,4; 3,01
9,0; 0,0; 100,0; 0,37; 3848,1; 1,34
10,0; 0,0; 100,0; 0,08; 815,2; 0,28


Measurement time:; 12/04/2023 18:40:43
Radiation device:; Novalis TB Accelerator
Energy:; 6 MV 
Controller:; CCU
Measurement device:; Blue Phantom 2  (48*48*41)
Field detector:; SFD parallele
Reference detector:; Stealth CI transmission
SAD:; 1000 mm
SSD:; 900 mm
Field size:; 10 x 10 mm
Gantry angle:; 0
Measurement medium:; Water
Scan type:; Crossline
Scan mode:; StepByStep
Wedge:; none

Points [mm]:
Inline; Crossline; Depth; Normalized field; Current field; Ratio
0,0; -10,0; 100,0; 0,37; 3843,1; 1,34
0,0; -9,0; 100,0; 0,85; 8844,1; 3,09
0,0; -8,0; 100,0; 1,80; 18654,2; 6,52
0,0; -7,0; 100,0; 3,83; 39744,2; 13,87
0,0; -6,0; 100,0; 8,33; 86366,7; 30,12
0,0; -5,0; 100,0; 16,21; 168032,4; 58,68
0,0; -4,0; 100,0; 23,33; 241838,2; 84,38
0,0; -3,0; 100,0; 26,30; 272604,3; 95,07
0,0; -2,0; 100,0; 27,09; 280738,0; 97,97
0,0; -1,0; 100,0; 27,56; 285618,9; 99,61
0,0; 0,0; 100,0; 27,65; 286554,8; 100,00
0,0; 1,0; 100,0; 27,64; 286473,4; 100,00
0,0; 2,0; 100,0; 26,96; 279385,3; 97,48
0,0; 3,0; 100,0; 25,68; 266178,3; 92,86
0,0; 4,0; 100,0; 23,09; 239282,9; 83,51
0,0; 5,0; 100,0; 17,37; 180067,4; 62,87
0,0; 6,0; 100,0; 8,35; 86565,3; 30,22
0,0; 7,0; 100,0; 3,56; 36891,5; 12,88
0,0; 8,0; 100,0; 1,69; 17484,3; 6,11
0,0; 9,0; 100,0; 0,85; 8810,9; 3,08
0,0; 10,0; 100,0; 0,37; 3826,7; 1,34


Measurement time:; 12/04/2023 18:43:02
Radiation device:; Novalis TB Accelerator
Energy:; 6 MV 
Controller:; CCU
Measurement device:; Blue Phantom 2  (48*48*41)
Field detector:; SFD parallele
Reference detector:; Stealth CI transmission
SAD:; 1000 mm
SSD:; 900 mm
Field size:; 10 x 10 mm
Gantry angle:; 0
Measurement medium:; Water
Scan type:; Beam
Scan mode:; StepByStep
Wedge:; none

Points [mm]:
Inline; Crossline; Depth; Normalized field; Current field; Ratio
0,0; 0,0; -0,5; 18,51; 191797,0; 36,72
0,0; 0,0; 0,5; 19,89; 206150,9; 39,48
0,0; 0,0; 1,5; 26,02; 269698,0; 51,66
0,0; 0,0; 2,5; 33,68; 349027,7; 66,82
0,0; 0,0; 3,5; 38,91; 403309,1; 77,21
0,0; 0,0; 4,5; 42,72; 442756,2; 84,73
0,0; 0,0; 5,5; 45,45; 471016,6; 90,14
0,0; 0,0; 6,5; 47,28; 490079,4; 93,86
0,0; 0,0; 7,5; 48,55; 503161,0; 96,38
0,0; 0,0; 8,5; 49,41; 512131,4; 98,14
0,0; 0,0; 9,5; 49,91; 517253,0; 99,06
0,0; 0,0; 10,5; 50,20; 520260,2; 99,61
0,0; 0,0; 11,5; 50,38; 522146,6; 99,95
0,0; 0,0; 12,5; 50,41; 522511,3; 100,00
0,0; 0,0; 13,5; 50,32; 521545,1; 99,83
0,0; 0,0; 14,5; 50,17; 519992,1; 99,52
0,0; 0,0; 15,5; 49,87; 516929,3; 99,06
0,0; 0,0; 16,5; 49,63; 514369,1; 98,53
0,0; 0,0; 17,5; 49,44; 512386,1; 98,08
0,0; 0,0; 18,5; 49,08; 508661,1; 97,37
0,0; 0,0; 19,5; 48,71; 504876,9; 96,66
0,0; 0,0; 20,5; 48,43; 501920,4; 96,17
0,0; 0,0; 21,5; 48,10; 498584,3; 95,53
0,0; 0,0; 22,5; 47,78; 495248,2; 94,89
0,0; 0,0; 23,5; 47,46; 491912,1; 94,26
0,0; 0,0; 24,5; 47,14; 488575,9; 93,62
0,0; 0,0; 25,5; 46,81; 485202,3; 92,97
0,0; 0,0; 26,5; 46,49; 481807,0; 92,32
0,0; 0,0; 27,5; 46,16; 478411,7; 91,66
0,0; 0,0; 28,5; 45,83; 475016,5; 91,00
0,0; 0,0; 29,5; 45,50; 471621,2; 90,34
0,0; 0,0; 30,5; 45,20; 468457,1; 89,74
0,0; 0,0; 31,5; 44,91; 465435,8; 89,17
0,0; 0,0; 32,5; 44,62; 462414,5; 88,60
0,0; 0,0; 33,5; 44,32; 459393,2; 88,04
0,0; 0,0; 34,5; 44,03; 456371,9; 87,47
0,0; 0,0; 35,5; 43,72; 453118,1; 86,84
0,0; 0,0; 36,5; 43,39; 449705,9; 86,16
0,0; 0,0; 37,5; 43,06; 446293,8; 85,49
0,0; 0,0; 38,5; 42,73; 442881,6; 84,82
0,0; 0,0; 39,5; 42,40; 439469,4; 84,14
0,0; 0,0; 40,5; 42,09; 436262,8; 83,52
0,0; 0,0; 41,5; 41,80; 433210,9; 82,95
0,0; 0,0; 42,5; 41,50; 430158,9; 82,37
0,0; 0,0; 43,5; 41,21; 427107,0; 81,80
0,0; 0,0; 44,5; 40,91; 424055,1; 81,22
0,0; 0,0; 45,5; 40,64; 421177,6; 80,67
0,0; 0,0; 46,5; 40,37; 418431,8; 80,14
0,0; 0,0; 47,5; 40,11; 415685,9; 79,61
0,0; 0,0; 48,5; 39,84; 412940,1; 79,08
0,0; 0,0; 49,5; 39,58; 410194,2; 78,55
0,0; 0,0; 50,5; 39,30; 407279,4; 77,99
0,0; 0,0; 51,5; 39,00; 404214,4; 77,43
0,0; 0,0; 52,5; 38,70; 401149,5; 76,86
0,0; 0,0; 53,5; 38,41; 398084,5; 76,29
0,0; 0,0; 54,5; 38,11; 395019,5; 75,73
0,0; 0,0; 55,5; 37,82; 392010,3; 75,14
0,0; 0,0; 56,5; 37,54; 389041,4; 74,54
0,0; 0,0; 57,5; 37,25; 386072,5; 73,94
0,0; 0,0; 58,5; 36,96; 383103,6; 73,35
0,0; 0,0; 59,5; 36,68; 380134,7; 72,75
0,0; 0,0; 60,5; 36,41; 377380,2; 72,21
0,0; 0,0; 61,5; 36,16; 374811,6; 71,73
0,0; 0,0; 62,5; 35,92; 372242,9; 71,24
0,0; 0,0; 63,5; 35,67; 369674,3; 70,76
0,0; 0,0; 64,5; 35,42; 367105,6; 70,27
0,0; 0,0; 65,5; 35,18; 364672,6; 69,81
0,0; 0,0; 66,5; 34,96; 362366,7; 69,38
0,0; 0,0; 67,5; 34,74; 360060,8; 68,95
0,0; 0,0; 68,5; 34,52; 357754,9; 68,51
0,0; 0,0; 69,5; 34,29; 355449,0; 68,08
0,0; 0,0; 70,5; 34,07; 353099,4; 67,63
0,0; 0,0; 71,5; 33,84; 350706,1; 67,16
0,0; 0,0; 72,5; 33,61; 348312,7; 66,70
0,0; 0,0; 73,5; 33,38; 345919,3; 66,24
0,0; 0,0; 74,5; 33,14; 343526,0; 65,77
0,0; 0,0; 75,5; 32,90; 341023,7; 65,29
0,0; 0,0; 76,5; 32,65; 338402,8; 64,79
0,0; 0,0; 77,5; 32,40; 335781,8; 64,29
0,0; 0,0; 78,5; 32,14; 333160,8; 63,79
0,0; 0,0; 79,5; 31,89; 330539,9; 63,29
0,0; 0,0; 80,5; 31,66; 328190,4; 62,84
0,0; 0,0; 81,5; 31,46; 326080,9; 62,43
0,0; 0,0; 82,5; 31,26; 323971,3; 62,03
0,0; 0,0; 83,5; 31,05; 321861,8; 61,62
0,0; 0,0; 84,5; 30,85; 319752,3; 61,21
0,0; 0,0; 85,5; 30,63; 317464,1; 60,77
0,0; 0,0; 86,5; 30,39; 314998,8; 60,29
0,0; 0,0; 87,5; 30,15; 312533,5; 59,81
0,0; 0,0; 88,5; 29,92; 310068,2; 59,32
0,0; 0,0; 89,5; 29,68; 307602,9; 58,84
0,0; 0,0; 90,5; 29,46; 305341,7; 58,41
0,0; 0,0; 91,5; 29,27; 303345,0; 58,04
0,0; 0,0; 92,5; 29,07; 301348,3; 57,68
0,0; 0,0; 93,5; 28,88; 299351,6; 57,31
0,0; 0,0; 94,5; 28,69; 297354,9; 56,95
0,0; 0,0; 95,5; 28,51; 295446,3; 56,59
0,0; 0,0; 96,5; 28,33; 293655,1; 56,26
0,0; 0,0; 97,5; 28,16; 291864,0; 55,93
0,0; 0,0; 98,5; 27,99; 290072,8; 55,60
0,0; 0,0; 99,5; 27,81; 288281,7; 55,27
0,0; 0,0; 100,5; 27,63; 286381,5; 54,90
0,0; 0,0; 101,5; 27,43; 284334,5; 54,50
0,0; 0,0; 102,5; 27,24; 282287,4; 54,09
0,0; 0,0; 103,5; 27,04; 280240,4; 53,69
0,0; 0,0; 104,5; 26,84; 278193,4; 53,28
0,0; 0,0; 105,5; 26,65; 276212,0; 52,90
0,0; 0,0; 106,5; 26,47; 274312,4; 52,55
0,0; 0,0; 107,5; 26,28; 272412,7; 52,20
0,0; 0,0; 108,5; 26,10; 270513,0; 51,84
0,0; 0,0; 109,5; 25,92; 268613,4; 51,49
0,0; 0,0; 110,5; 25,73; 266698,6; 51,13
0,0; 0,0; 111,5; 25,55; 264762,8; 50,75
0,0; 0,0; 112,5; 25,36; 262827,1; 50,37
0,0; 0,0; 113,5; 25,17; 260891,4; 49,99
0,0; 0,0; 114,5; 24,98; 258955,7; 49,61
0,0; 0,0; 115,5; 24,82; 257209,7; 49,27
0,0; 0,0; 116,5; 24,67; 255712,9; 48,99
0,0; 0,0; 117,5; 24,53; 254216,1; 48,72
0,0; 0,0; 118,5; 24,38; 252719,3; 48,44
0,0; 0,0; 119,5; 24,24; 251222,5; 48,17
0,0; 0,0; 120,5; 24,07; 249506,9; 47,84
0,0; 0,0; 121,5; 23,88; 247513,3; 47,45
0,0; 0,0; 122,5; 23,69; 245519,7; 47,06
0,0; 0,0; 123,5; 23,50; 243526,2; 46,67
0,0; 0,0; 124,5; 23,30; 241532,6; 46,28
0,0; 0,0; 125,5; 23,13; 239716,2; 45,93
0,0; 0,0; 126,5; 22,98; 238145,4; 45,64
0,0; 0,0; 127,5; 22,83; 236574,6; 45,36
0,0; 0,0; 128,5; 22,67; 235003,8; 45,07
0,0; 0,0; 129,5; 22,52; 233433,0; 44,78
0,0; 0,0; 130,5; 22,38; 231979,6; 44,50
0,0; 0,0; 131,5; 22,25; 230652,6; 44,22
0,0; 0,0; 132,5; 22,13; 229325,6; 43,94
0,0; 0,0; 133,5; 22,00; 227998,6; 43,66
0,0; 0,0; 134,5; 21,87; 226671,6; 43,38
0,0; 0,0; 135,5; 21,72; 225158,0; 43,08
0,0; 0,0; 136,5; 21,55; 223399,2; 42,77
0,0; 0,0; 137,5; 21,38; 221640,3; 42,45
0,0; 0,0; 138,5; 21,21; 219881,5; 42,14
0,0; 0,0; 139,5; 21,05; 218122,6; 41,82
0,0; 0,0; 140,5; 20,89; 216544,6; 41,53
0,0; 0,0; 141,5; 20,76; 215168,6; 41,25
0,0; 0,0; 142,5; 20,63; 213792,7; 40,98
0,0; 0,0; 143,5; 20,49; 212416,7; 40,70
0,0; 0,0; 144,5; 20,36; 211040,8; 40,43
0,0; 0,0; 145,5; 20,23; 209657,9; 40,16
0,0; 0,0; 146,5; 20,09; 208266,0; 39,90
0,0; 0,0; 147,5; 19,96; 206874,0; 39,63
0,0; 0,0; 148,5; 19,83; 205482,1; 39,37
0,0; 0,0; 149,5; 19,69; 204090,2; 39,11
0,0; 0,0; 150,5; 19,56; 202746,8; 38,85
0,0; 0,0; 151,5; 19,44; 201467,3; 38,60
0,0; 0,0; 152,5; 19,31; 200187,7; 38,35
0,0; 0,0; 153,5; 19,19; 198908,2; 38,10
0,0; 0,0; 154,5; 19,07; 197628,7; 37,85
0,0; 0,0; 155,5; 18,94; 196335,3; 37,60
0,0; 0,0; 156,5; 18,82; 195024,4; 37,35
0,0; 0,0; 157,5; 18,69; 193713,6; 37,10
0,0; 0,0; 158,5; 18,56; 192402,7; 36,85
0,0; 0,0; 159,5; 18,44; 191091,9; 36,60
0,0; 0,0; 160,5; 18,32; 189850,9; 36,36
0,0; 0,0; 161,5; 18,21; 188695,6; 36,15
0,0; 0,0; 162,5; 18,09; 187540,3; 35,93
0,0; 0,0; 163,5; 17,98; 186385,1; 35,72
0,0; 0,0; 164,5; 17,87; 185229,8; 35,50
0,0; 0,0; 165,5; 17,75; 184016,9; 35,27
0,0; 0,0; 166,5; 17,63; 182732,6; 35,02
0,0; 0,0; 167,5; 17,51; 181448,4; 34,78
0,0; 0,0; 168,5; 17,38; 180164,1; 34,53
0,0; 0,0; 169,5; 17,26; 178879,8; 34,28
0,0; 0,0; 170,5; 17,14; 177678,7; 34,05
0,0; 0,0; 171,5; 17,04; 176579,0; 33,83
0,0; 0,0; 172,5; 16,93; 175479,3; 33,62
0,0; 0,0; 173,5; 16,82; 174379,6; 33,40
0,0; 0,0; 174,5; 16,72; 173279,9; 33,18
0,0; 0,0; 175,5; 16,61; 172136,8; 32,97
0,0; 0,0; 176,5; 16,49; 170938,5; 32,75
0,0; 0,0; 177,5; 16,38; 169740,2; 32,54
0,0; 0,0; 178,5; 16,26; 168541,9; 32,32
0,0; 0,0; 179,5; 16,15; 167343,6; 32,11
0,0; 0,0; 180,5; 16,04; 166230,4; 31,89
0,0; 0,0; 181,5; 15,94; 165218,6; 31,68
0,0; 0,0; 182,5; 15,84; 164206,8; 31,46
0,0; 0,0; 183,5; 15,75; 163194,9; 31,24
0,0; 0,0; 184,5; 15,65; 162183,1; 31,03
0,0; 0,0; 185,5; 15,54; 161071,1; 30,81
0,0; 0,0; 186,5; 15,42; 159825,3; 30,58
0,0; 0,0; 187,5; 15,30; 158579,5; 30,35
0,0; 0,0; 188,5; 15,18; 157333,7; 30,12
0,0; 0,0; 189,5; 15,06; 156087,9; 29,89
0,0; 0,0; 190,5; 14,95; 154978,3; 29,68
0,0; 0,0; 191,5; 14,86; 154039,3; 29,50
0,0; 0,0; 192,5; 14,77; 153100,4; 29,32
0,0; 0,0; 193,5; 14,68; 152161,4; 29,14
0,0; 0,0; 194,5; 14,59; 151222,4; 28,97
0,0; 0,0; 195,5; 14,50; 150290,4; 28,79
0,0; 0,0; 196,5; 14,41; 149366,2; 28,61
0,0; 0,0; 197,5; 14,32; 148442,0; 28,44
0,0; 0,0; 198,5; 14,23; 147517,8; 28,27
0,0; 0,0; 199,5; 14,14; 146593,6; 28,09
0,0; 0,0; 200,5; 14,05; 145628,2; 27,91
0,0; 0,0; 201,5; 13,95; 144611,3; 27,72
0,0; 0,0; 202,5; 13,85; 143594,3; 27,53
0,0; 0,0; 203,5; 13,76; 142577,4; 27,34
0,0; 0,0; 204,5; 13,66; 141560,4; 27,14
0,0; 0,0; 205,5; 13,57; 140640,0; 26,97
0,0; 0,0; 206,5; 13,49; 139844,9; 26,82
0,0; 0,0; 207,5; 13,42; 139049,8; 26,67
0,0; 0,0; 208,5; 13,34; 138254,8; 26,53
0,0; 0,0; 209,5; 13,26; 137459,7; 26,38
0,0; 0,0; 210,5; 13,18; 136554,8; 26,20
0,0; 0,0; 211,5; 13,07; 135511,9; 25,99
0,0; 0,0; 212,5; 12,97; 134469,0; 25,79
0,0; 0,0; 213,5; 12,87; 133426,1; 25,58
0,0; 0,0; 214,5; 12,77; 132383,2; 25,37
0,0; 0,0; 215,5; 12,68; 131448,0; 25,19
0,0; 0,0; 216,5; 12,61; 130645,1; 25,03
0,0; 0,0; 217,5; 12,53; 129842,2; 24,87
0,0; 0,0; 218,5; 12,45; 129039,2; 24,71
0,0; 0,0; 219,5; 12,37; 128236,3; 24,55
0,0; 0,0; 220,5; 12,29; 127417,3; 24,40
0,0; 0,0; 221,5; 12,21; 126578,2; 24,23
0,0; 0,0; 222,5; 12,13; 125739,0; 24,07
0,0; 0,0; 223,5; 12,05; 124899,8; 23,91
0,0; 0,0; 224,5; 11,97; 124060,6; 23,75
0,0; 0,0; 225,5; 11,89; 123273,4; 23,60
0,0; 0,0; 226,5; 11,82; 122549,3; 23,47
0,0; 0,0; 227,5; 11,75; 121825,2; 23,33
0,0; 0,0; 228,5; 11,68; 121101,0; 23,20
0,0; 0,0; 229,5; 11,61; 120376,9; 23,06
0,0; 0,0; 230,5; 11,54; 119613,8; 22,92
0,0; 0,0; 231,5; 11,46; 118802,4; 22,76
0,0; 0,0; 232,5; 11,38; 117991,0; 22,61
0,0; 0,0; 233,5; 11,31; 117179,5; 22,45
0,0; 0,0; 234,5; 11,23; 116368,1; 22,29
0,0; 0,0; 235,5; 11,15; 115558,0; 22,13
0,0; 0,0; 236,5; 11,07; 114749,6; 21,98
0,0; 0,0; 237,5; 10,99; 113941,1; 21,82
0,0; 0,0; 238,5; 10,92; 113132,7; 21,67
0,0; 0,0; 239,5; 10,84; 112324,3; 21,51
0,0; 0,0; 240,5; 10,77; 111641,0; 21,38
0,0; 0,0; 241,5; 10,72; 111091,8; 21,28
0,0; 0,0; 242,5; 10,67; 110542,7; 21,18
0,0; 0,0; 243,5; 10,61; 109993,5; 21,08
0,0; 0,0; 244,5; 10,56; 109444,4; 20,97
0,0; 0,0; 245,5; 10,49; 108750,5; 20,84
0,0; 0,0; 246,5; 10,41; 107876,7; 20,67
0,0; 0,0; 247,5; 10,32; 107002,9; 20,51
0,0; 0,0; 248,5; 10,24; 106129,2; 20,34
0,0; 0,0; 249,5; 10,16; 105255,4; 20,17


