Measurement time:; 27/05/2023 10:55:28
Radiation device:; Novalis TB Accelerator
Energy:; 6 MV (FFF)
Controller:; CCU
Measurement device:; Blue Phantom 2  (48*48*41)
Field detector:; PTW60019 Diamant
Reference detector:; Stealth CI transmission
SAD:; 1000 mm
SSD:; 900 mm
Field size:; 20 x 20 mm
Gantry angle:; 0
Measurement medium:; Water
Scan type:; Inline
Scan mode:; StepByStep
Wedge:; none

Points [mm]:
Inline; Crossline; Depth; Normalized field; Current field; Ratio
-30,0; 0,0; 100,0; 130,51; 1102,5; 1,08
-29,0; 0,0; 100,0; 153,93; 1300,2; 1,27
-28,0; 0,0; 100,0; 155,47; 1313,3; 1,29
-27,0; 0,0; 100,0; 168,92; 1426,9; 1,40
-26,0; 0,0; 100,0; 182,93; 1545,3; 1,51
-25,0; 0,0; 100,0; 197,03; 1664,4; 1,63
-24,0; 0,0; 100,0; 208,13; 1758,1; 1,72
-23,0; 0,0; 100,0; 217,63; 1838,3; 1,80
-22,0; 0,0; 100,0; 237,81; 2008,8; 1,97
-21,0; 0,0; 100,0; 255,65; 2159,5; 2,11
-20,0; 0,0; 100,0; 287,92; 2432,1; 2,38
-19,0; 0,0; 100,0; 309,60; 2615,2; 2,56
-18,0; 0,0; 100,0; 349,37; 2951,1; 2,89
-17,0; 0,0; 100,0; 396,29; 3347,5; 3,28
-16,0; 0,0; 100,0; 472,30; 3989,6; 3,91
-15,0; 0,0; 100,0; 565,48; 4776,6; 4,68
-14,0; 0,0; 100,0; 719,51; 6077,7; 5,95
-13,0; 0,0; 100,0; 976,30; 8246,9; 8,08
-12,0; 0,0; 100,0; 1486,51; 12556,7; 12,29
-11,0; 0,0; 100,0; 2786,29; 23536,1; 23,04
-10,0; 0,0; 100,0; 5843,77; 49362,8; 48,34
-9,0; 0,0; 100,0; 9145,20; 77250,3; 75,68
-8,0; 0,0; 100,0; 10813,56; 91343,1; 89,51
-7,0; 0,0; 100,0; 11397,53; 96276,0; 94,35
-6,0; 0,0; 100,0; 11673,46; 98606,8; 96,62
-5,0; 0,0; 100,0; 11847,90; 100080,2; 98,07
-4,0; 0,0; 100,0; 11984,99; 101238,3; 99,15
-3,0; 0,0; 100,0; 12035,27; 101663,0; 99,59
-2,0; 0,0; 100,0; 12065,42; 101917,7; 99,88
-1,0; 0,0; 100,0; 12103,99; 102243,5; 100,17
0,0; 0,0; 100,0; 12087,82; 102106,9; 100,00
1,0; 0,0; 100,0; 12064,21; 101907,5; 99,84
2,0; 0,0; 100,0; 12062,93; 101896,6; 99,79
3,0; 0,0; 100,0; 11977,90; 101178,4; 99,16
4,0; 0,0; 100,0; 11917,00; 100664,0; 98,67
5,0; 0,0; 100,0; 11794,03; 99625,2; 97,58
6,0; 0,0; 100,0; 11565,90; 97698,2; 95,70
7,0; 0,0; 100,0; 11113,65; 93878,0; 91,97
8,0; 0,0; 100,0; 10029,39; 84719,1; 82,98
9,0; 0,0; 100,0; 7402,99; 62533,7; 61,27
10,0; 0,0; 100,0; 3990,77; 33710,4; 33,03
11,0; 0,0; 100,0; 1952,78; 16495,3; 16,16
12,0; 0,0; 100,0; 1151,99; 9730,9; 9,53
13,0; 0,0; 100,0; 820,60; 6931,6; 6,79
14,0; 0,0; 100,0; 611,70; 5167,1; 5,06
15,0; 0,0; 100,0; 493,66; 4170,0; 4,09
16,0; 0,0; 100,0; 413,56; 3493,4; 3,42
17,0; 0,0; 100,0; 355,05; 2999,1; 2,94
18,0; 0,0; 100,0; 306,88; 2592,3; 2,54
19,0; 0,0; 100,0; 286,36; 2418,9; 2,37
20,0; 0,0; 100,0; 259,36; 2190,8; 2,15
21,0; 0,0; 100,0; 232,30; 1962,3; 1,92
22,0; 0,0; 100,0; 219,48; 1854,0; 1,82
23,0; 0,0; 100,0; 209,18; 1766,9; 1,73
24,0; 0,0; 100,0; 194,79; 1645,4; 1,61
25,0; 0,0; 100,0; 182,02; 1537,5; 1,51
26,0; 0,0; 100,0; 173,98; 1469,6; 1,44
27,0; 0,0; 100,0; 165,45; 1397,6; 1,37
28,0; 0,0; 100,0; 162,58; 1373,3; 1,35
29,0; 0,0; 100,0; 165,87; 1401,1; 1,37
30,0; 0,0; 100,0; 150,42; 1270,6; 1,25


Measurement time:; 27/05/2023 10:58:20
Radiation device:; Novalis TB Accelerator
Energy:; 6 MV (FFF)
Controller:; CCU
Measurement device:; Blue Phantom 2  (48*48*41)
Field detector:; PTW60019 Diamant
Reference detector:; Stealth CI transmission
SAD:; 1000 mm
SSD:; 900 mm
Field size:; 20 x 20 mm
Gantry angle:; 0
Measurement medium:; Water
Scan type:; Crossline
Scan mode:; StepByStep
Wedge:; none

Points [mm]:
Inline; Crossline; Depth; Normalized field; Current field; Ratio
0,0; -30,0; 100,0; 141,02; 1191,2; 1,17
0,0; -29,0; 100,0; 147,52; 1246,1; 1,22
0,0; -28,0; 100,0; 162,24; 1370,5; 1,34
0,0; -27,0; 100,0; 173,19; 1462,9; 1,43
0,0; -26,0; 100,0; 180,71; 1526,5; 1,50
0,0; -25,0; 100,0; 196,42; 1659,2; 1,63
0,0; -24,0; 100,0; 204,26; 1725,4; 1,69
0,0; -23,0; 100,0; 216,02; 1824,7; 1,79
0,0; -22,0; 100,0; 235,39; 1988,4; 1,95
0,0; -21,0; 100,0; 251,74; 2126,5; 2,09
0,0; -20,0; 100,0; 281,39; 2376,9; 2,33
0,0; -19,0; 100,0; 313,78; 2650,6; 2,60
0,0; -18,0; 100,0; 348,22; 2941,5; 2,88
0,0; -17,0; 100,0; 395,73; 3342,8; 3,28
0,0; -16,0; 100,0; 473,51; 3999,8; 3,92
0,0; -15,0; 100,0; 585,60; 4946,6; 4,85
0,0; -14,0; 100,0; 759,30; 6413,9; 6,28
0,0; -13,0; 100,0; 1101,90; 9307,9; 9,12
0,0; -12,0; 100,0; 1803,41; 15233,6; 14,93
0,0; -11,0; 100,0; 3406,61; 28775,9; 28,20
0,0; -10,0; 100,0; 6359,90; 53722,7; 52,61
0,0; -9,0; 100,0; 9400,17; 79404,0; 77,81
0,0; -8,0; 100,0; 10858,64; 91723,9; 89,86
0,0; -7,0; 100,0; 11434,69; 96589,8; 94,63
0,0; -6,0; 100,0; 11700,62; 98836,2; 96,88
0,0; -5,0; 100,0; 11870,55; 100271,6; 98,30
0,0; -4,0; 100,0; 11946,98; 100917,2; 98,87
0,0; -3,0; 100,0; 12024,02; 101567,9; 99,48
0,0; -2,0; 100,0; 12081,25; 102051,4; 99,93
0,0; -1,0; 100,0; 12081,43; 102052,9; 99,95
0,0; 0,0; 100,0; 12075,92; 102006,4; 100,00
0,0; 1,0; 100,0; 12081,39; 102052,6; 99,99
0,0; 2,0; 100,0; 12072,75; 101979,6; 99,94
0,0; 3,0; 100,0; 12047,99; 101770,4; 99,75
0,0; 4,0; 100,0; 11995,34; 101325,7; 99,29
0,0; 5,0; 100,0; 11898,65; 100509,0; 98,50
0,0; 6,0; 100,0; 11762,82; 99361,6; 97,41
0,0; 7,0; 100,0; 11519,26; 97304,2; 95,40
0,0; 8,0; 100,0; 11049,81; 93338,7; 91,47
0,0; 9,0; 100,0; 10001,41; 84482,8; 82,79
0,0; 10,0; 100,0; 7849,08; 66301,9; 64,98
0,0; 11,0; 100,0; 4661,24; 39373,9; 38,57
0,0; 12,0; 100,0; 2226,93; 18811,1; 18,43
0,0; 13,0; 100,0; 1288,36; 10882,9; 10,66
0,0; 14,0; 100,0; 854,73; 7220,0; 7,07
0,0; 15,0; 100,0; 637,16; 5382,1; 5,27
0,0; 16,0; 100,0; 507,10; 4283,5; 4,20
0,0; 17,0; 100,0; 430,73; 3638,4; 3,56
0,0; 18,0; 100,0; 372,30; 3144,9; 3,08
0,0; 19,0; 100,0; 329,91; 2786,8; 2,73
0,0; 20,0; 100,0; 296,80; 2507,1; 2,46
0,0; 21,0; 100,0; 274,93; 2322,4; 2,27
0,0; 22,0; 100,0; 246,42; 2081,5; 2,04
0,0; 23,0; 100,0; 228,41; 1929,4; 1,89
0,0; 24,0; 100,0; 211,98; 1790,6; 1,75
0,0; 25,0; 100,0; 213,28; 1801,6; 1,77
0,0; 26,0; 100,0; 190,38; 1608,2; 1,57
0,0; 27,0; 100,0; 180,28; 1522,8; 1,49
0,0; 28,0; 100,0; 166,26; 1404,4; 1,37
0,0; 29,0; 100,0; 159,79; 1349,8; 1,32
0,0; 30,0; 100,0; 151,88; 1283,0; 1,26


Measurement time:; 27/05/2023 11:00:52
Radiation device:; Novalis TB Accelerator
Energy:; 6 MV (FFF)
Controller:; CCU
Measurement device:; Blue Phantom 2  (48*48*41)
Field detector:; PTW60019 Diamant
Reference detector:; Stealth CI transmission
SAD:; 1000 mm
SSD:; 900 mm
Field size:; 20 x 20 mm
Gantry angle:; 0
Measurement medium:; Water
Scan type:; Beam
Scan mode:; StepByStep
Wedge:; none

Points [mm]:
Inline; Crossline; Depth; Normalized field; Current field; Ratio
0,0; 0,0; -0,5; 12354,20; 104357,0; 55,47
0,0; 0,0; 0,5; 12388,19; 104644,2; 55,62
0,0; 0,0; 1,5; 13436,01; 113495,2; 60,33
0,0; 0,0; 2,5; 15588,57; 131678,0; 70,02
0,0; 0,0; 3,5; 17566,16; 148382,9; 78,92
0,0; 0,0; 4,5; 18988,01; 160393,4; 85,29
0,0; 0,0; 5,5; 20029,46; 169190,6; 89,95
0,0; 0,0; 6,5; 20797,23; 175676,1; 93,38
0,0; 0,0; 7,5; 21338,76; 180250,5; 95,76
0,0; 0,0; 8,5; 21721,90; 183486,8; 97,48
0,0; 0,0; 9,5; 21957,93; 185480,6; 98,59
0,0; 0,0; 10,5; 22119,41; 186844,7; 99,34
0,0; 0,0; 11,5; 22239,98; 187863,1; 99,85
0,0; 0,0; 12,5; 22269,40; 188111,6; 100,00
0,0; 0,0; 13,5; 22242,22; 187882,0; 99,92
0,0; 0,0; 14,5; 22186,64; 187412,5; 99,66
0,0; 0,0; 15,5; 22111,47; 186777,6; 99,34
0,0; 0,0; 16,5; 22020,17; 186006,3; 98,92
0,0; 0,0; 17,5; 21929,53; 185240,7; 98,46
0,0; 0,0; 18,5; 21833,06; 184425,8; 98,03
0,0; 0,0; 19,5; 21711,76; 183401,2; 97,51
0,0; 0,0; 20,5; 21572,79; 182227,3; 96,88
0,0; 0,0; 21,5; 21414,72; 180892,1; 96,17
0,0; 0,0; 22,5; 21273,03; 179695,2; 95,53
0,0; 0,0; 23,5; 21145,98; 178622,0; 94,88
0,0; 0,0; 24,5; 20995,42; 177350,2; 94,23
0,0; 0,0; 25,5; 20842,03; 176054,5; 93,60
0,0; 0,0; 26,5; 20695,28; 174814,9; 92,93
0,0; 0,0; 27,5; 20548,53; 173575,3; 92,27
0,0; 0,0; 28,5; 20401,78; 172335,7; 91,60
0,0; 0,0; 29,5; 20255,03; 171096,1; 90,94
0,0; 0,0; 30,5; 20111,54; 169884,0; 90,29
0,0; 0,0; 31,5; 19970,10; 168689,2; 89,65
0,0; 0,0; 32,5; 19828,66; 167494,5; 89,01
0,0; 0,0; 33,5; 19687,22; 166299,7; 88,36
0,0; 0,0; 34,5; 19545,78; 165105,0; 87,72
0,0; 0,0; 35,5; 19407,06; 163933,2; 87,10
0,0; 0,0; 36,5; 19269,98; 162775,3; 86,49
0,0; 0,0; 37,5; 19132,90; 161617,3; 85,88
0,0; 0,0; 38,5; 18995,82; 160459,4; 85,26
0,0; 0,0; 39,5; 18858,74; 159301,5; 84,65
0,0; 0,0; 40,5; 18720,38; 158132,7; 84,03
0,0; 0,0; 41,5; 18581,14; 156956,6; 83,41
0,0; 0,0; 42,5; 18441,90; 155780,4; 82,79
0,0; 0,0; 43,5; 18302,67; 154604,3; 82,16
0,0; 0,0; 44,5; 18163,43; 153428,1; 81,54
0,0; 0,0; 45,5; 18030,28; 152303,4; 80,94
0,0; 0,0; 46,5; 17901,42; 151214,9; 80,36
0,0; 0,0; 47,5; 17772,56; 150126,4; 79,78
0,0; 0,0; 48,5; 17643,70; 149037,9; 79,21
0,0; 0,0; 49,5; 17514,84; 147949,4; 78,63
0,0; 0,0; 50,5; 17383,16; 146837,1; 78,04
0,0; 0,0; 51,5; 17249,18; 145705,4; 77,44
0,0; 0,0; 52,5; 17115,20; 144573,6; 76,84
0,0; 0,0; 53,5; 16981,22; 143441,9; 76,24
0,0; 0,0; 54,5; 16847,24; 142310,1; 75,64
0,0; 0,0; 55,5; 16721,45; 141247,6; 75,07
0,0; 0,0; 56,5; 16603,45; 140250,8; 74,54
0,0; 0,0; 57,5; 16485,44; 139254,0; 74,01
0,0; 0,0; 58,5; 16367,44; 138257,2; 73,48
0,0; 0,0; 59,5; 16249,44; 137260,4; 72,95
0,0; 0,0; 60,5; 16132,23; 136270,4; 72,42
0,0; 0,0; 61,5; 16015,76; 135286,6; 71,91
0,0; 0,0; 62,5; 15899,30; 134302,8; 71,39
0,0; 0,0; 63,5; 15782,83; 133319,0; 70,87
0,0; 0,0; 64,5; 15666,36; 132335,2; 70,36
0,0; 0,0; 65,5; 15552,03; 131369,4; 69,85
0,0; 0,0; 66,5; 15439,80; 130421,4; 69,34
0,0; 0,0; 67,5; 15327,58; 129473,4; 68,84
0,0; 0,0; 68,5; 15215,36; 128525,5; 68,33
0,0; 0,0; 69,5; 15103,13; 127577,5; 67,83
0,0; 0,0; 70,5; 14994,13; 126656,7; 67,33
0,0; 0,0; 71,5; 14888,34; 125763,1; 66,84
0,0; 0,0; 72,5; 14782,55; 124869,6; 66,36
0,0; 0,0; 73,5; 14676,77; 123976,0; 65,87
0,0; 0,0; 74,5; 14570,98; 123082,4; 65,39
0,0; 0,0; 75,5; 14465,30; 122189,7; 64,91
0,0; 0,0; 76,5; 14359,74; 121298,0; 64,45
0,0; 0,0; 77,5; 14254,18; 120406,3; 63,99
0,0; 0,0; 78,5; 14148,62; 119514,6; 63,53
0,0; 0,0; 79,5; 14043,06; 118623,0; 63,07
0,0; 0,0; 80,5; 13939,59; 117748,9; 62,61
0,0; 0,0; 81,5; 13838,60; 116895,9; 62,14
0,0; 0,0; 82,5; 13737,62; 116042,9; 61,68
0,0; 0,0; 83,5; 13636,64; 115189,9; 61,22
0,0; 0,0; 84,5; 13535,66; 114336,9; 60,76
0,0; 0,0; 85,5; 13434,38; 113481,4; 60,30
0,0; 0,0; 86,5; 13332,78; 112623,2; 59,84
0,0; 0,0; 87,5; 13231,17; 111764,9; 59,38
0,0; 0,0; 88,5; 13129,57; 110906,7; 58,93
0,0; 0,0; 89,5; 13027,97; 110048,4; 58,47
0,0; 0,0; 90,5; 12931,40; 109232,7; 58,04
0,0; 0,0; 91,5; 12841,66; 108474,6; 57,63
0,0; 0,0; 92,5; 12751,91; 107716,6; 57,22
0,0; 0,0; 93,5; 12662,17; 106958,5; 56,81
0,0; 0,0; 94,5; 12572,43; 106200,5; 56,40
0,0; 0,0; 95,5; 12482,49; 105440,7; 56,00
0,0; 0,0; 96,5; 12392,30; 104678,8; 55,60
0,0; 0,0; 97,5; 12302,10; 103916,9; 55,21
0,0; 0,0; 98,5; 12211,90; 103155,0; 54,81
0,0; 0,0; 99,5; 12121,70; 102393,1; 54,41
0,0; 0,0; 100,5; 12037,32; 101680,3; 54,04
0,0; 0,0; 101,5; 11961,28; 101038,0; 53,69
0,0; 0,0; 102,5; 11885,24; 100395,7; 53,34
0,0; 0,0; 103,5; 11809,20; 99753,4; 53,00
0,0; 0,0; 104,5; 11733,16; 99111,0; 52,65
0,0; 0,0; 105,5; 11650,18; 98410,1; 52,28
0,0; 0,0; 106,5; 11558,57; 97636,3; 51,88
0,0; 0,0; 107,5; 11466,97; 96862,5; 51,47
0,0; 0,0; 108,5; 11375,36; 96088,7; 51,07
0,0; 0,0; 109,5; 11283,76; 95314,9; 50,67
0,0; 0,0; 110,5; 11199,21; 94600,7; 50,29
0,0; 0,0; 111,5; 11123,27; 93959,3; 49,94
0,0; 0,0; 112,5; 11047,33; 93317,8; 49,59
0,0; 0,0; 113,5; 10971,39; 92676,3; 49,24
0,0; 0,0; 114,5; 10895,45; 92034,8; 48,89
0,0; 0,0; 115,5; 10820,82; 91404,5; 48,55
0,0; 0,0; 116,5; 10747,76; 90787,3; 48,22
0,0; 0,0; 117,5; 10674,71; 90170,2; 47,90
0,0; 0,0; 118,5; 10601,65; 89553,1; 47,57
0,0; 0,0; 119,5; 10528,59; 88935,9; 47,25
0,0; 0,0; 120,5; 10453,88; 88304,9; 46,91
0,0; 0,0; 121,5; 10376,81; 87653,8; 46,57
0,0; 0,0; 122,5; 10299,73; 87002,8; 46,23
0,0; 0,0; 123,5; 10222,66; 86351,7; 45,89
0,0; 0,0; 124,5; 10145,58; 85700,6; 45,54
0,0; 0,0; 125,5; 10072,62; 85084,3; 45,22
0,0; 0,0; 126,5; 10004,94; 84512,6; 44,91
0,0; 0,0; 127,5; 9937,25; 83940,9; 44,61
0,0; 0,0; 128,5; 9869,57; 83369,2; 44,30
0,0; 0,0; 129,5; 9801,89; 82797,4; 44,00
0,0; 0,0; 130,5; 9734,32; 82226,6; 43,69
0,0; 0,0; 131,5; 9666,89; 81657,1; 43,39
0,0; 0,0; 132,5; 9599,47; 81087,6; 43,09
0,0; 0,0; 133,5; 9532,04; 80518,0; 42,78
0,0; 0,0; 134,5; 9464,62; 79948,5; 42,48
0,0; 0,0; 135,5; 9398,95; 79393,8; 42,18
0,0; 0,0; 136,5; 9335,33; 78856,4; 41,89
0,0; 0,0; 137,5; 9271,72; 78319,0; 41,61
0,0; 0,0; 138,5; 9208,10; 77781,6; 41,32
0,0; 0,0; 139,5; 9144,48; 77244,3; 41,03
0,0; 0,0; 140,5; 9079,42; 76694,7; 40,74
0,0; 0,0; 141,5; 9012,41; 76128,6; 40,44
0,0; 0,0; 142,5; 8945,39; 75562,5; 40,14
0,0; 0,0; 143,5; 8878,37; 74996,4; 39,84
0,0; 0,0; 144,5; 8811,36; 74430,3; 39,54
0,0; 0,0; 145,5; 8748,88; 73902,6; 39,26
0,0; 0,0; 146,5; 8692,44; 73425,8; 39,01
0,0; 0,0; 147,5; 8635,99; 72949,0; 38,75
0,0; 0,0; 148,5; 8579,55; 72472,2; 38,50
0,0; 0,0; 149,5; 8523,10; 71995,4; 38,24
0,0; 0,0; 150,5; 8466,39; 71516,3; 37,99
0,0; 0,0; 151,5; 8409,33; 71034,4; 37,73
0,0; 0,0; 152,5; 8352,27; 70552,4; 37,48
0,0; 0,0; 153,5; 8295,22; 70070,4; 37,22
0,0; 0,0; 154,5; 8238,16; 69588,5; 36,97
0,0; 0,0; 155,5; 8181,86; 69112,9; 36,72
0,0; 0,0; 156,5; 8126,51; 68645,4; 36,47
0,0; 0,0; 157,5; 8071,17; 68177,9; 36,22
0,0; 0,0; 158,5; 8015,83; 67710,5; 35,97
0,0; 0,0; 159,5; 7960,49; 67243,0; 35,72
0,0; 0,0; 160,5; 7905,55; 66778,9; 35,48
0,0; 0,0; 161,5; 7851,16; 66319,4; 35,23
0,0; 0,0; 162,5; 7796,77; 65860,0; 34,99
0,0; 0,0; 163,5; 7742,37; 65400,5; 34,74
0,0; 0,0; 164,5; 7687,98; 64941,0; 34,50
0,0; 0,0; 165,5; 7634,29; 64487,5; 34,26
0,0; 0,0; 166,5; 7581,59; 64042,4; 34,02
0,0; 0,0; 167,5; 7528,89; 63597,2; 33,78
0,0; 0,0; 168,5; 7476,19; 63152,0; 33,54
0,0; 0,0; 169,5; 7423,48; 62706,8; 33,30
0,0; 0,0; 170,5; 7371,60; 62268,6; 33,07
0,0; 0,0; 171,5; 7320,79; 61839,4; 32,84
0,0; 0,0; 172,5; 7269,97; 61410,1; 32,62
0,0; 0,0; 173,5; 7219,16; 60980,9; 32,39
0,0; 0,0; 174,5; 7168,35; 60551,7; 32,17
0,0; 0,0; 175,5; 7119,82; 60141,7; 31,95
0,0; 0,0; 176,5; 7074,02; 59754,9; 31,75
0,0; 0,0; 177,5; 7028,23; 59368,1; 31,54
0,0; 0,0; 178,5; 6982,44; 58981,3; 31,34
0,0; 0,0; 179,5; 6936,65; 58594,5; 31,13
0,0; 0,0; 180,5; 6890,87; 58207,8; 30,93
0,0; 0,0; 181,5; 6845,10; 57821,2; 30,72
0,0; 0,0; 182,5; 6799,33; 57434,6; 30,51
0,0; 0,0; 183,5; 6753,56; 57047,9; 30,30
0,0; 0,0; 184,5; 6707,79; 56661,3; 30,10
0,0; 0,0; 185,5; 6662,72; 56280,6; 29,89
0,0; 0,0; 186,5; 6618,43; 55906,5; 29,69
0,0; 0,0; 187,5; 6574,15; 55532,4; 29,49
0,0; 0,0; 188,5; 6529,86; 55158,3; 29,29
0,0; 0,0; 189,5; 6485,57; 54784,2; 29,09
0,0; 0,0; 190,5; 6442,56; 54420,9; 28,90
0,0; 0,0; 191,5; 6401,15; 54071,1; 28,71
0,0; 0,0; 192,5; 6359,73; 53721,2; 28,53
0,0; 0,0; 193,5; 6318,31; 53371,3; 28,35
0,0; 0,0; 194,5; 6276,89; 53021,5; 28,16
0,0; 0,0; 195,5; 6233,53; 52655,2; 27,97
0,0; 0,0; 196,5; 6187,98; 52270,4; 27,77
0,0; 0,0; 197,5; 6142,43; 51885,6; 27,56
0,0; 0,0; 198,5; 6096,88; 51500,9; 27,36
0,0; 0,0; 199,5; 6051,33; 51116,1; 27,15
0,0; 0,0; 200,5; 6009,31; 50761,2; 26,96
0,0; 0,0; 201,5; 5971,93; 50445,4; 26,79
0,0; 0,0; 202,5; 5934,55; 50129,6; 26,62
0,0; 0,0; 203,5; 5897,16; 49813,9; 26,45
0,0; 0,0; 204,5; 5859,78; 49498,1; 26,28
0,0; 0,0; 205,5; 5822,63; 49184,2; 26,12
0,0; 0,0; 206,5; 5785,77; 48872,9; 25,95
0,0; 0,0; 207,5; 5748,92; 48561,6; 25,79
0,0; 0,0; 208,5; 5712,06; 48250,3; 25,62
0,0; 0,0; 209,5; 5675,20; 47939,0; 25,45
0,0; 0,0; 210,5; 5637,93; 47624,1; 25,29
0,0; 0,0; 211,5; 5600,13; 47304,8; 25,12
0,0; 0,0; 212,5; 5562,33; 46985,5; 24,95
0,0; 0,0; 213,5; 5524,53; 46666,2; 24,79
0,0; 0,0; 214,5; 5486,73; 46346,9; 24,62
0,0; 0,0; 215,5; 5450,93; 46044,5; 24,46
0,0; 0,0; 216,5; 5417,70; 45763,8; 24,31
0,0; 0,0; 217,5; 5384,46; 45483,0; 24,15
0,0; 0,0; 218,5; 5351,22; 45202,2; 24,00
0,0; 0,0; 219,5; 5317,98; 44921,5; 23,85
0,0; 0,0; 220,5; 5282,34; 44620,4; 23,69
0,0; 0,0; 221,5; 5243,07; 44288,7; 23,51
0,0; 0,0; 222,5; 5203,79; 43956,9; 23,34
0,0; 0,0; 223,5; 5164,52; 43625,1; 23,16
0,0; 0,0; 224,5; 5125,24; 43293,4; 22,99
0,0; 0,0; 225,5; 5089,85; 42994,4; 22,83
0,0; 0,0; 226,5; 5058,92; 42733,1; 22,69
0,0; 0,0; 227,5; 5027,98; 42471,8; 22,55
0,0; 0,0; 228,5; 4997,05; 42210,5; 22,42
0,0; 0,0; 229,5; 4966,11; 41949,2; 22,28
0,0; 0,0; 230,5; 4935,64; 41691,8; 22,14
0,0; 0,0; 231,5; 4905,75; 41439,3; 22,01
0,0; 0,0; 232,5; 4875,86; 41186,8; 21,87
0,0; 0,0; 233,5; 4845,96; 40934,3; 21,74
0,0; 0,0; 234,5; 4816,07; 40681,7; 21,61
0,0; 0,0; 235,5; 4785,75; 40425,6; 21,47
0,0; 0,0; 236,5; 4754,92; 40165,2; 21,33
0,0; 0,0; 237,5; 4724,10; 39904,9; 21,19
0,0; 0,0; 238,5; 4693,27; 39644,5; 21,05
0,0; 0,0; 239,5; 4662,45; 39384,1; 20,91
0,0; 0,0; 240,5; 4632,16; 39128,3; 20,78
0,0; 0,0; 241,5; 4602,50; 38877,7; 20,64
0,0; 0,0; 242,5; 4572,83; 38627,1; 20,51
0,0; 0,0; 243,5; 4543,17; 38376,5; 20,38
0,0; 0,0; 244,5; 4513,50; 38125,9; 20,25
0,0; 0,0; 245,5; 4484,02; 37876,9; 20,11
0,0; 0,0; 246,5; 4454,75; 37629,7; 19,98
0,0; 0,0; 247,5; 4425,48; 37382,5; 19,85
0,0; 0,0; 248,5; 4396,22; 37135,2; 19,72
0,0; 0,0; 249,5; 4366,95; 36888,0; 19,59


Measurement time:; 27/05/2023 11:06:13
Radiation device:; Novalis TB Accelerator
Energy:; 6 MV (FFF)
Controller:; CCU
Measurement device:; Blue Phantom 2  (48*48*41)
Field detector:; PTW60019 Diamant
Reference detector:; Stealth CI transmission
SAD:; 1000 mm
SSD:; 900 mm
Field size:; 20 x 20 mm
Gantry angle:; 0
Measurement medium:; Water
Scan type:; Point
Scan mode:; Absolute
Wedge:; none
Position Inline:; -0,0101928710938068 mm
Position Crossline:; -0,0401916503905682 mm
Position Depth:; 100,068801123047 mm
Dose:; 1,4897 Gy



Measurement time:; 27/05/2023 11:06:54
Radiation device:; Novalis TB Accelerator
Energy:; 6 MV (FFF)
Controller:; CCU
Measurement device:; Blue Phantom 2  (48*48*41)
Field detector:; PTW60019 Diamant
Reference detector:; Stealth CI transmission
SAD:; 1000 mm
SSD:; 900 mm
Field size:; 20 x 20 mm
Gantry angle:; 0
Measurement medium:; Water
Scan type:; Point
Scan mode:; Absolute
Wedge:; none
Position Inline:; -0,0101928710938068 mm
Position Crossline:; -0,0527038574218182 mm
Position Depth:; 100,078780371094 mm
Dose:; 1,4855 Gy



Measurement time:; 27/05/2023 11:07:24
Radiation device:; Novalis TB Accelerator
Energy:; 6 MV (FFF)
Controller:; CCU
Measurement device:; Blue Phantom 2  (48*48*41)
Field detector:; PTW60019 Diamant
Reference detector:; Stealth CI transmission
SAD:; 1000 mm
SSD:; 900 mm
Field size:; 20 x 20 mm
Gantry angle:; 0
Measurement medium:; Water
Scan type:; Point
Scan mode:; Absolute
Wedge:; none
Position Inline:; -0,0101928710938068 mm
Position Crossline:; 0,0193786621094318 mm
Position Depth:; 100,068801123047 mm
Dose:; 1,4877 Gy



Measurement time:; 27/05/2023 11:08:03
Radiation device:; Novalis TB Accelerator
Energy:; 6 MV (FFF)
Controller:; CCU
Measurement device:; Blue Phantom 2  (48*48*41)
Field detector:; PTW60019 Diamant
Reference detector:; Stealth CI transmission
SAD:; 1000 mm
SSD:; 900 mm
Field size:; 20 x 20 mm
Gantry angle:; 0
Measurement medium:; Water
Scan type:; Point
Scan mode:; Absolute
Wedge:; none
Position Inline:; -0,00732421875005684 mm
Position Crossline:; -0,0681762695311932 mm
Position Depth:; 100,068801123047 mm
Dose:; 0,0000 Gy



Measurement time:; 27/05/2023 11:08:58
Radiation device:; Novalis TB Accelerator
Energy:; 6 MV (FFF)
Controller:; CCU
Measurement device:; Blue Phantom 2  (48*48*41)
Field detector:; PTW60019 Diamant
Reference detector:; Stealth CI transmission
SAD:; 1000 mm
SSD:; 900 mm
Field size:; 20 x 20 mm
Gantry angle:; 0
Measurement medium:; Water
Scan type:; Point
Scan mode:; Absolute
Wedge:; none
Position Inline:; -0,0101928710938068 mm
Position Crossline:; -0,0201721191405682 mm
Position Depth:; 100,068801123047 mm
Dose:; 1,4894 Gy



Measurement time:; 27/05/2023 11:10:39
Radiation device:; Novalis TB Accelerator
Energy:; 6 MV (FFF)
Controller:; CCU
Measurement device:; Blue Phantom 2  (48*48*41)
Field detector:; PTW60019 Diamant
Reference detector:; Stealth CI transmission
SAD:; 1000 mm
SSD:; 900 mm
Field size:; 100 x 100 mm
Gantry angle:; 0
Measurement medium:; Water
Scan type:; Point
Scan mode:; Absolute
Wedge:; none
Position Inline:; -0,0101928710938068 mm
Position Crossline:; -0,0379638671874432 mm
Position Depth:; 100,078780371094 mm
Dose:; 1,8374 Gy



Measurement time:; 27/05/2023 11:11:08
Radiation device:; Novalis TB Accelerator
Energy:; 6 MV (FFF)
Controller:; CCU
Measurement device:; Blue Phantom 2  (48*48*41)
Field detector:; PTW60019 Diamant
Reference detector:; Stealth CI transmission
SAD:; 1000 mm
SSD:; 900 mm
Field size:; 100 x 100 mm
Gantry angle:; 0
Measurement medium:; Water
Scan type:; Point
Scan mode:; Absolute
Wedge:; none
Position Inline:; -0,0151672363281818 mm
Position Crossline:; -0,0401916503905682 mm
Position Depth:; 100,093428808594 mm
Dose:; 1,8343 Gy



Measurement time:; 27/05/2023 11:11:39
Radiation device:; Novalis TB Accelerator
Energy:; 6 MV (FFF)
Controller:; CCU
Measurement device:; Blue Phantom 2  (48*48*41)
Field detector:; PTW60019 Diamant
Reference detector:; Stealth CI transmission
SAD:; 1000 mm
SSD:; 900 mm
Field size:; 100 x 100 mm
Gantry angle:; 0
Measurement medium:; Water
Scan type:; Point
Scan mode:; Absolute
Wedge:; none
Position Inline:; 0,00323486328119316 mm
Position Crossline:; -0,0406494140624432 mm
Position Depth:; 100,050948339844 mm
Dose:; 1,8351 Gy



