Measurement time:; 27/05/2023 10:11:08
Radiation device:; Novalis TB Accelerator
Energy:; 6 MV (FFF)
Controller:; CCU
Measurement device:; Blue Phantom 2  (48*48*41)
Field detector:; PTW60019 Diamant
Reference detector:; Stealth CI transmission
SAD:; 1000 mm
SSD:; 900 mm
Field size:; 5 x 5 mm
Gantry angle:; 0
Measurement medium:; Water
Scan type:; Inline
Scan mode:; StepByStep
Wedge:; none

Points [mm]:
Inline; Crossline; Depth; Normalized field; Current field; Ratio
-10,0; 0,0; 100,0; 54,94; 713,0; 0,95
-9,0; 0,0; 100,0; 68,32; 886,7; 1,18
-8,0; 0,0; 100,0; 96,98; 1258,7; 1,68
-7,0; 0,0; 100,0; 134,42; 1744,6; 2,33
-6,0; 0,0; 100,0; 209,18; 2715,0; 3,63
-5,0; 0,0; 100,0; 362,15; 4700,4; 6,29
-4,0; 0,0; 100,0; 785,65; 10196,9; 13,61
-3,0; 0,0; 100,0; 1949,96; 25308,4; 33,82
-2,0; 0,0; 100,0; 3937,31; 51102,0; 68,27
-1,0; 0,0; 100,0; 5451,24; 70751,2; 94,03
0,0; 0,0; 100,0; 5799,80; 75275,1; 100,00
1,0; 0,0; 100,0; 5215,41; 67690,3; 90,34
2,0; 0,0; 100,0; 3421,05; 44401,5; 59,08
3,0; 0,0; 100,0; 1469,84; 19076,9; 25,40
4,0; 0,0; 100,0; 572,21; 7426,7; 9,91
5,0; 0,0; 100,0; 284,62; 3694,1; 4,91
6,0; 0,0; 100,0; 163,66; 2124,2; 2,83
7,0; 0,0; 100,0; 103,43; 1342,4; 1,79
8,0; 0,0; 100,0; 71,71; 930,8; 1,24
9,0; 0,0; 100,0; 54,55; 708,0; 0,94
10,0; 0,0; 100,0; 41,03; 532,6; 0,71


Measurement time:; 27/05/2023 10:12:41
Radiation device:; Novalis TB Accelerator
Energy:; 6 MV (FFF)
Controller:; CCU
Measurement device:; Blue Phantom 2  (48*48*41)
Field detector:; PTW60019 Diamant
Reference detector:; Stealth CI transmission
SAD:; 1000 mm
SSD:; 900 mm
Field size:; 5 x 5 mm
Gantry angle:; 0
Measurement medium:; Water
Scan type:; Crossline
Scan mode:; StepByStep
Wedge:; none

Points [mm]:
Inline; Crossline; Depth; Normalized field; Current field; Ratio
0,0; -10,0; 100,0; 47,36; 614,6; 0,81
0,0; -9,0; 100,0; 62,56; 811,9; 1,07
0,0; -8,0; 100,0; 84,83; 1101,0; 1,45
0,0; -7,0; 100,0; 139,10; 1805,4; 2,38
0,0; -6,0; 100,0; 236,57; 3070,4; 4,06
0,0; -5,0; 100,0; 468,06; 6074,9; 8,01
0,0; -4,0; 100,0; 1020,94; 13250,7; 17,56
0,0; -3,0; 100,0; 2288,84; 29706,7; 39,32
0,0; -2,0; 100,0; 4199,68; 54507,3; 72,07
0,0; -1,0; 100,0; 5433,23; 70517,4; 93,37
0,0; 0,0; 100,0; 5798,97; 75264,4; 100,00
0,0; 1,0; 100,0; 5593,83; 72601,9; 95,85
0,0; 2,0; 100,0; 4882,67; 63371,8; 83,90
0,0; 3,0; 100,0; 3231,00; 41934,9; 55,55
0,0; 4,0; 100,0; 1482,62; 19242,9; 25,39
0,0; 5,0; 100,0; 596,81; 7745,9; 10,23
0,0; 6,0; 100,0; 269,16; 3493,4; 4,63
0,0; 7,0; 100,0; 142,04; 1843,5; 2,43
0,0; 8,0; 100,0; 94,25; 1223,3; 1,61
0,0; 9,0; 100,0; 65,73; 853,1; 1,12
0,0; 10,0; 100,0; 54,14; 702,7; 0,93


Measurement time:; 27/05/2023 10:14:20
Radiation device:; Novalis TB Accelerator
Energy:; 6 MV (FFF)
Controller:; CCU
Measurement device:; Blue Phantom 2  (48*48*41)
Field detector:; PTW60019 Diamant
Reference detector:; Stealth CI transmission
SAD:; 1000 mm
SSD:; 900 mm
Field size:; 5 x 5 mm
Gantry angle:; 0
Measurement medium:; Water
Scan type:; Beam
Scan mode:; StepByStep
Wedge:; none

Points [mm]:
Inline; Crossline; Depth; Normalized field; Current field; Ratio
0,0; 0,0; -0,5; 7277,92; 94459,5; 63,53
0,0; 0,0; 0,5; 7294,87; 94679,6; 63,55
0,0; 0,0; 1,5; 8012,87; 103998,4; 69,89
0,0; 0,0; 2,5; 9332,86; 121130,4; 81,57
0,0; 0,0; 3,5; 10292,12; 133580,6; 89,81
0,0; 0,0; 4,5; 10854,07; 140874,1; 94,65
0,0; 0,0; 5,5; 11176,23; 145055,4; 97,45
0,0; 0,0; 6,5; 11342,78; 147217,0; 98,77
0,0; 0,0; 7,5; 11422,71; 148254,4; 99,60
0,0; 0,0; 8,5; 11457,65; 148707,8; 99,86
0,0; 0,0; 9,5; 11462,66; 148772,9; 99,99
0,0; 0,0; 10,5; 11430,99; 148361,8; 100,00
0,0; 0,0; 11,5; 11377,30; 147665,1; 99,33
0,0; 0,0; 12,5; 11319,44; 146914,1; 98,88
0,0; 0,0; 13,5; 11240,58; 145890,5; 98,31
0,0; 0,0; 14,5; 11153,09; 144755,1; 97,43
0,0; 0,0; 15,5; 11084,52; 143865,0; 97,00
0,0; 0,0; 16,5; 11004,28; 142823,6; 96,21
0,0; 0,0; 17,5; 10917,81; 141701,3; 95,45
0,0; 0,0; 18,5; 10836,02; 140639,8; 94,90
0,0; 0,0; 19,5; 10747,81; 139494,9; 93,93
0,0; 0,0; 20,5; 10658,97; 138341,9; 93,16
0,0; 0,0; 21,5; 10571,20; 137202,7; 92,28
0,0; 0,0; 22,5; 10497,94; 136251,8; 91,64
0,0; 0,0; 23,5; 10420,14; 135242,2; 91,22
0,0; 0,0; 24,5; 10334,42; 134129,6; 90,60
0,0; 0,0; 25,5; 10265,47; 133234,7; 89,99
0,0; 0,0; 26,5; 10181,49; 132144,7; 89,17
0,0; 0,0; 27,5; 10097,51; 131054,8; 88,35
0,0; 0,0; 28,5; 10013,53; 129964,8; 87,53
0,0; 0,0; 29,5; 9929,55; 128874,8; 86,71
0,0; 0,0; 30,5; 9851,36; 127859,9; 86,04
0,0; 0,0; 31,5; 9776,82; 126892,5; 85,47
0,0; 0,0; 32,5; 9702,27; 125925,0; 84,89
0,0; 0,0; 33,5; 9627,73; 124957,6; 84,32
0,0; 0,0; 34,5; 9553,19; 123990,1; 83,74
0,0; 0,0; 35,5; 9477,58; 123008,7; 83,05
0,0; 0,0; 36,5; 9401,29; 122018,5; 82,29
0,0; 0,0; 37,5; 9324,99; 121028,3; 81,52
0,0; 0,0; 38,5; 9248,70; 120038,1; 80,76
0,0; 0,0; 39,5; 9172,41; 119047,9; 80,00
0,0; 0,0; 40,5; 9099,62; 118103,2; 79,31
0,0; 0,0; 41,5; 9029,21; 117189,3; 78,67
0,0; 0,0; 42,5; 8958,80; 116275,5; 78,04
0,0; 0,0; 43,5; 8888,39; 115361,7; 77,40
0,0; 0,0; 44,5; 8817,99; 114447,9; 76,77
0,0; 0,0; 45,5; 8750,51; 113572,2; 76,16
0,0; 0,0; 46,5; 8685,03; 112722,2; 75,57
0,0; 0,0; 47,5; 8619,54; 111872,3; 74,97
0,0; 0,0; 48,5; 8554,05; 111022,3; 74,38
0,0; 0,0; 49,5; 8488,56; 110172,3; 73,79
0,0; 0,0; 50,5; 8422,70; 109317,5; 73,21
0,0; 0,0; 51,5; 8356,55; 108458,9; 72,65
0,0; 0,0; 52,5; 8290,40; 107600,4; 72,08
0,0; 0,0; 53,5; 8224,25; 106741,8; 71,51
0,0; 0,0; 54,5; 8158,10; 105883,3; 70,95
0,0; 0,0; 55,5; 8097,07; 105091,3; 70,46
0,0; 0,0; 56,5; 8040,51; 104357,1; 70,05
0,0; 0,0; 57,5; 7983,94; 103622,9; 69,64
0,0; 0,0; 58,5; 7927,37; 102888,7; 69,22
0,0; 0,0; 59,5; 7870,80; 102154,5; 68,81
0,0; 0,0; 60,5; 7811,35; 101382,9; 68,29
0,0; 0,0; 61,5; 7749,16; 100575,7; 67,67
0,0; 0,0; 62,5; 7686,96; 99768,4; 67,04
0,0; 0,0; 63,5; 7624,76; 98961,2; 66,42
0,0; 0,0; 64,5; 7562,57; 98153,9; 65,80
0,0; 0,0; 65,5; 7503,53; 97387,7; 65,24
0,0; 0,0; 66,5; 7447,62; 96662,1; 64,74
0,0; 0,0; 67,5; 7391,72; 95936,5; 64,24
0,0; 0,0; 68,5; 7335,81; 95210,9; 63,74
0,0; 0,0; 69,5; 7279,90; 94485,3; 63,24
0,0; 0,0; 70,5; 7224,38; 93764,6; 62,77
0,0; 0,0; 71,5; 7169,25; 93049,0; 62,33
0,0; 0,0; 72,5; 7114,12; 92333,5; 61,90
0,0; 0,0; 73,5; 7058,99; 91618,0; 61,46
0,0; 0,0; 74,5; 7003,86; 90902,5; 61,03
0,0; 0,0; 75,5; 6949,80; 90200,9; 60,56
0,0; 0,0; 76,5; 6896,93; 89514,6; 60,06
0,0; 0,0; 77,5; 6844,05; 88828,4; 59,56
0,0; 0,0; 78,5; 6791,18; 88142,1; 59,06
0,0; 0,0; 79,5; 6738,30; 87455,8; 58,56
0,0; 0,0; 80,5; 6687,77; 86800,0; 58,12
0,0; 0,0; 81,5; 6639,91; 86178,9; 57,75
0,0; 0,0; 82,5; 6592,06; 85557,8; 57,38
0,0; 0,0; 83,5; 6544,20; 84936,7; 57,01
0,0; 0,0; 84,5; 6496,35; 84315,6; 56,65
0,0; 0,0; 85,5; 6447,58; 83682,6; 56,26
0,0; 0,0; 86,5; 6397,60; 83034,0; 55,85
0,0; 0,0; 87,5; 6347,63; 82385,3; 55,44
0,0; 0,0; 88,5; 6297,65; 81736,7; 55,04
0,0; 0,0; 89,5; 6247,68; 81088,1; 54,63
0,0; 0,0; 90,5; 6200,08; 80470,4; 54,22
0,0; 0,0; 91,5; 6155,36; 79889,9; 53,82
0,0; 0,0; 92,5; 6110,64; 79309,5; 53,41
0,0; 0,0; 93,5; 6065,91; 78729,0; 53,01
0,0; 0,0; 94,5; 6021,19; 78148,5; 52,61
0,0; 0,0; 95,5; 5975,98; 77561,8; 52,19
0,0; 0,0; 96,5; 5930,16; 76967,1; 51,77
0,0; 0,0; 97,5; 5884,34; 76372,4; 51,34
0,0; 0,0; 98,5; 5838,52; 75777,7; 50,91
0,0; 0,0; 99,5; 5792,70; 75183,0; 50,49
0,0; 0,0; 100,5; 5749,38; 74620,8; 50,09
0,0; 0,0; 101,5; 5709,12; 74098,2; 49,72
0,0; 0,0; 102,5; 5668,86; 73575,6; 49,36
0,0; 0,0; 103,5; 5628,59; 73053,0; 49,00
0,0; 0,0; 104,5; 5588,33; 72530,4; 48,63
0,0; 0,0; 105,5; 5547,83; 72004,9; 48,28
0,0; 0,0; 106,5; 5507,05; 71475,6; 47,94
0,0; 0,0; 107,5; 5466,27; 70946,3; 47,61
0,0; 0,0; 108,5; 5425,49; 70417,0; 47,27
0,0; 0,0; 109,5; 5384,71; 69887,7; 46,93
0,0; 0,0; 110,5; 5345,87; 69383,6; 46,61
0,0; 0,0; 111,5; 5309,54; 68912,1; 46,31
0,0; 0,0; 112,5; 5273,21; 68440,6; 46,00
0,0; 0,0; 113,5; 5236,88; 67969,0; 45,70
0,0; 0,0; 114,5; 5200,55; 67497,5; 45,40
0,0; 0,0; 115,5; 5163,25; 67013,4; 45,07
0,0; 0,0; 116,5; 5124,64; 66512,2; 44,72
0,0; 0,0; 117,5; 5086,02; 66011,0; 44,37
0,0; 0,0; 118,5; 5047,40; 65509,8; 44,01
0,0; 0,0; 119,5; 5008,79; 65008,7; 43,66
0,0; 0,0; 120,5; 4971,47; 64524,3; 43,33
0,0; 0,0; 121,5; 4935,74; 64060,6; 43,03
0,0; 0,0; 122,5; 4900,01; 63596,9; 42,72
0,0; 0,0; 123,5; 4864,28; 63133,1; 42,42
0,0; 0,0; 124,5; 4828,56; 62669,4; 42,12
0,0; 0,0; 125,5; 4792,66; 62203,6; 41,81
0,0; 0,0; 126,5; 4756,55; 61734,8; 41,49
0,0; 0,0; 127,5; 4720,43; 61266,1; 41,17
0,0; 0,0; 128,5; 4684,31; 60797,3; 40,85
0,0; 0,0; 129,5; 4648,20; 60328,6; 40,53
0,0; 0,0; 130,5; 4614,38; 59889,7; 40,23
0,0; 0,0; 131,5; 4583,31; 59486,4; 39,97
0,0; 0,0; 132,5; 4552,23; 59083,1; 39,72
0,0; 0,0; 133,5; 4521,16; 58679,7; 39,46
0,0; 0,0; 134,5; 4490,08; 58276,4; 39,20
0,0; 0,0; 135,5; 4458,11; 57861,4; 38,91
0,0; 0,0; 136,5; 4424,98; 57431,5; 38,59
0,0; 0,0; 137,5; 4391,86; 57001,6; 38,27
0,0; 0,0; 138,5; 4358,73; 56571,7; 37,95
0,0; 0,0; 139,5; 4325,61; 56141,8; 37,63
0,0; 0,0; 140,5; 4294,54; 55738,4; 37,34
0,0; 0,0; 141,5; 4266,02; 55368,4; 37,08
0,0; 0,0; 142,5; 4237,51; 54998,3; 36,82
0,0; 0,0; 143,5; 4209,00; 54628,2; 36,57
0,0; 0,0; 144,5; 4180,49; 54258,2; 36,31
0,0; 0,0; 145,5; 4150,91; 53874,3; 36,06
0,0; 0,0; 146,5; 4120,03; 53473,5; 35,82
0,0; 0,0; 147,5; 4089,15; 53072,8; 35,58
0,0; 0,0; 148,5; 4058,28; 52672,0; 35,34
0,0; 0,0; 149,5; 4027,40; 52271,3; 35,10
0,0; 0,0; 150,5; 3998,34; 51894,2; 34,85
0,0; 0,0; 151,5; 3971,28; 51543,0; 34,60
0,0; 0,0; 152,5; 3944,22; 51191,7; 34,34
0,0; 0,0; 153,5; 3917,16; 50840,5; 34,09
0,0; 0,0; 154,5; 3890,10; 50489,3; 33,84
0,0; 0,0; 155,5; 3862,63; 50132,8; 33,59
0,0; 0,0; 156,5; 3834,61; 49769,1; 33,35
0,0; 0,0; 157,5; 3806,59; 49405,4; 33,12
0,0; 0,0; 158,5; 3778,57; 49041,7; 32,88
0,0; 0,0; 159,5; 3750,55; 48678,0; 32,65
0,0; 0,0; 160,5; 3723,99; 48333,4; 32,43
0,0; 0,0; 161,5; 3699,24; 48012,1; 32,24
0,0; 0,0; 162,5; 3674,49; 47690,9; 32,05
0,0; 0,0; 163,5; 3649,74; 47369,6; 31,85
0,0; 0,0; 164,5; 3624,99; 47048,4; 31,66
0,0; 0,0; 165,5; 3599,69; 46720,1; 31,46
0,0; 0,0; 166,5; 3573,62; 46381,8; 31,25
0,0; 0,0; 167,5; 3547,55; 46043,4; 31,03
0,0; 0,0; 168,5; 3521,49; 45705,1; 30,82
0,0; 0,0; 169,5; 3495,42; 45366,8; 30,60
0,0; 0,0; 170,5; 3470,85; 45047,8; 30,39
0,0; 0,0; 171,5; 3448,12; 44752,8; 30,19
0,0; 0,0; 172,5; 3425,39; 44457,9; 29,99
0,0; 0,0; 173,5; 3402,66; 44162,9; 29,78
0,0; 0,0; 174,5; 3379,93; 43867,9; 29,58
0,0; 0,0; 175,5; 3356,26; 43560,6; 29,37
0,0; 0,0; 176,5; 3331,45; 43238,6; 29,15
0,0; 0,0; 177,5; 3306,63; 42916,5; 28,93
0,0; 0,0; 178,5; 3281,82; 42594,4; 28,71
0,0; 0,0; 179,5; 3257,00; 42272,4; 28,49
0,0; 0,0; 180,5; 3233,13; 41962,5; 28,27
0,0; 0,0; 181,5; 3210,42; 41667,7; 28,06
0,0; 0,0; 182,5; 3187,71; 41373,0; 27,85
0,0; 0,0; 183,5; 3165,00; 41078,2; 27,64
0,0; 0,0; 184,5; 3142,29; 40783,5; 27,43
0,0; 0,0; 185,5; 3121,81; 40517,8; 27,25
0,0; 0,0; 186,5; 3103,71; 40282,8; 27,11
0,0; 0,0; 187,5; 3085,60; 40047,8; 26,97
0,0; 0,0; 188,5; 3067,49; 39812,8; 26,83
0,0; 0,0; 189,5; 3049,39; 39577,8; 26,69
0,0; 0,0; 190,5; 3030,31; 39330,1; 26,53
0,0; 0,0; 191,5; 3009,94; 39065,8; 26,34
0,0; 0,0; 192,5; 2989,58; 38801,5; 26,15
0,0; 0,0; 193,5; 2969,21; 38537,2; 25,96
0,0; 0,0; 194,5; 2948,85; 38272,9; 25,77
0,0; 0,0; 195,5; 2928,24; 38005,4; 25,58
0,0; 0,0; 196,5; 2907,37; 37734,6; 25,38
0,0; 0,0; 197,5; 2886,50; 37463,7; 25,19
0,0; 0,0; 198,5; 2865,63; 37192,8; 25,00
0,0; 0,0; 199,5; 2844,76; 36922,0; 24,80
0,0; 0,0; 200,5; 2825,64; 36673,7; 24,63
0,0; 0,0; 201,5; 2808,51; 36451,5; 24,50
0,0; 0,0; 202,5; 2791,39; 36229,2; 24,37
0,0; 0,0; 203,5; 2774,26; 36006,9; 24,23
0,0; 0,0; 204,5; 2757,13; 35784,6; 24,10
0,0; 0,0; 205,5; 2739,01; 35549,4; 23,95
0,0; 0,0; 206,5; 2719,64; 35298,0; 23,78
0,0; 0,0; 207,5; 2700,28; 35046,7; 23,62
0,0; 0,0; 208,5; 2680,91; 34795,3; 23,45
0,0; 0,0; 209,5; 2661,54; 34543,9; 23,29
0,0; 0,0; 210,5; 2643,26; 34306,7; 23,13
0,0; 0,0; 211,5; 2626,36; 34087,3; 22,98
0,0; 0,0; 212,5; 2609,46; 33867,9; 22,84
0,0; 0,0; 213,5; 2592,56; 33648,6; 22,69
0,0; 0,0; 214,5; 2575,65; 33429,2; 22,55
0,0; 0,0; 215,5; 2558,72; 33209,4; 22,40
0,0; 0,0; 216,5; 2541,74; 32989,1; 22,25
0,0; 0,0; 217,5; 2524,76; 32768,7; 22,10
0,0; 0,0; 218,5; 2507,79; 32548,4; 21,96
0,0; 0,0; 219,5; 2490,81; 32328,0; 21,81
0,0; 0,0; 220,5; 2474,24; 32113,0; 21,67
0,0; 0,0; 221,5; 2458,22; 31905,1; 21,53
0,0; 0,0; 222,5; 2442,20; 31697,1; 21,40
0,0; 0,0; 223,5; 2426,18; 31489,2; 21,27
0,0; 0,0; 224,5; 2410,16; 31281,3; 21,14
0,0; 0,0; 225,5; 2393,86; 31069,8; 21,00
0,0; 0,0; 226,5; 2377,25; 30854,2; 20,84
0,0; 0,0; 227,5; 2360,64; 30638,6; 20,69
0,0; 0,0; 228,5; 2344,03; 30423,0; 20,54
0,0; 0,0; 229,5; 2327,42; 30207,4; 20,38
0,0; 0,0; 230,5; 2311,76; 30004,1; 20,24
0,0; 0,0; 231,5; 2297,24; 29815,6; 20,12
0,0; 0,0; 232,5; 2282,72; 29627,2; 19,99
0,0; 0,0; 233,5; 2268,20; 29438,7; 19,87
0,0; 0,0; 234,5; 2253,67; 29250,3; 19,74
0,0; 0,0; 235,5; 2239,00; 29059,8; 19,61
0,0; 0,0; 236,5; 2224,14; 28866,9; 19,48
0,0; 0,0; 237,5; 2209,28; 28674,0; 19,36
0,0; 0,0; 238,5; 2194,41; 28481,1; 19,23
0,0; 0,0; 239,5; 2179,55; 28288,2; 19,10
0,0; 0,0; 240,5; 2165,24; 28102,4; 18,96
0,0; 0,0; 241,5; 2151,49; 27924,0; 18,82
0,0; 0,0; 242,5; 2137,75; 27745,7; 18,68
0,0; 0,0; 243,5; 2124,01; 27567,3; 18,55
0,0; 0,0; 244,5; 2110,26; 27388,9; 18,41
0,0; 0,0; 245,5; 2097,19; 27219,3; 18,28
0,0; 0,0; 246,5; 2084,87; 27059,4; 18,16
0,0; 0,0; 247,5; 2072,56; 26899,6; 18,04
0,0; 0,0; 248,5; 2060,25; 26739,7; 17,93
0,0; 0,0; 249,5; 2047,93; 26579,9; 17,81


Measurement time:; 27/05/2023 10:20:06
Radiation device:; Novalis TB Accelerator
Energy:; 6 MV (FFF)
Controller:; CCU
Measurement device:; Blue Phantom 2  (48*48*41)
Field detector:; PTW60019 Diamant
Reference detector:; Stealth CI transmission
SAD:; 1000 mm
SSD:; 900 mm
Field size:; 5 x 5 mm
Gantry angle:; 0
Measurement medium:; Water
Scan type:; Point
Scan mode:; Absolute
Wedge:; none
Position Inline:; -0,0101928710938068 mm
Position Crossline:; 0,0104370117188068 mm
Position Depth:; 100,050948339844 mm
Dose:; 1,0950 Gy



Measurement time:; 27/05/2023 10:21:00
Radiation device:; Novalis TB Accelerator
Energy:; 6 MV (FFF)
Controller:; CCU
Measurement device:; Blue Phantom 2  (48*48*41)
Field detector:; PTW60019 Diamant
Reference detector:; Stealth CI transmission
SAD:; 1000 mm
SSD:; 900 mm
Field size:; 5 x 5 mm
Gantry angle:; 0
Measurement medium:; Water
Scan type:; Point
Scan mode:; Absolute
Wedge:; none
Position Inline:; -0,0101928710938068 mm
Position Crossline:; 0,0565490722656818 mm
Position Depth:; 100,078780371094 mm
Dose:; 1,0948 Gy



Measurement time:; 27/05/2023 10:21:31
Radiation device:; Novalis TB Accelerator
Energy:; 6 MV (FFF)
Controller:; CCU
Measurement device:; Blue Phantom 2  (48*48*41)
Field detector:; PTW60019 Diamant
Reference detector:; Stealth CI transmission
SAD:; 1000 mm
SSD:; 900 mm
Field size:; 5 x 5 mm
Gantry angle:; 0
Measurement medium:; Water
Scan type:; Point
Scan mode:; Absolute
Wedge:; none
Position Inline:; -0,0208435058594318 mm
Position Crossline:; 0,00982666015630684 mm
Position Depth:; 100,068801123047 mm
Dose:; 1,0941 Gy



Measurement time:; 27/05/2023 10:23:02
Radiation device:; Novalis TB Accelerator
Energy:; 6 MV (FFF)
Controller:; CCU
Measurement device:; Blue Phantom 2  (48*48*41)
Field detector:; PTW60019 Diamant
Reference detector:; Stealth CI transmission
SAD:; 1000 mm
SSD:; 900 mm
Field size:; 100 x 100 mm
Gantry angle:; 0
Measurement medium:; Water
Scan type:; Point
Scan mode:; Absolute
Wedge:; none
Position Inline:; -0,0101928710938068 mm
Position Crossline:; 0,000946044921931843 mm
Position Depth:; 100,068801123047 mm
Dose:; 1,8357 Gy



Measurement time:; 27/05/2023 10:26:03
Radiation device:; Novalis TB Accelerator
Energy:; 6 MV (FFF)
Controller:; CCU
Measurement device:; Blue Phantom 2  (48*48*41)
Field detector:; PTW60019 Diamant
Reference detector:; Stealth CI transmission
SAD:; 1000 mm
SSD:; 900 mm
Field size:; 100 x 100 mm
Gantry angle:; 0
Measurement medium:; Water
Scan type:; Point
Scan mode:; Absolute
Wedge:; none
Position Inline:; 0,00335693359369316 mm
Position Crossline:; 0,0464782714844318 mm
Position Depth:; 100,054915625 mm
Dose:; 1,8367 Gy



Measurement time:; 27/05/2023 10:26:33
Radiation device:; Novalis TB Accelerator
Energy:; 6 MV (FFF)
Controller:; CCU
Measurement device:; Blue Phantom 2  (48*48*41)
Field detector:; PTW60019 Diamant
Reference detector:; Stealth CI transmission
SAD:; 1000 mm
SSD:; 900 mm
Field size:; 100 x 100 mm
Gantry angle:; 0
Measurement medium:; Water
Scan type:; Point
Scan mode:; Absolute
Wedge:; none
Position Inline:; -0,0101928710938068 mm
Position Crossline:; -0,0101928710936932 mm
Position Depth:; 100,068801123047 mm
Dose:; 1,8355 Gy



